# yinyangspiderman1.thr, 6050 total verts
# tackdown length=0.2 
# yinyangspiderman1.thr, 5985 verts
#Alg Type: Th=Thfn(t),  R=Rfn(t) 
#t domain: 80 to 300, verts: 6050 
#RFn: pow(t,a)+c*(sin(t*b)+0) 
#Rpar a: 0.89 
#Rpar b (lobes): 1.99 
#Rpar c: 50 
#Rpar d: 0 
#ThFn: t+a*sin(b*t) 
#Thpar a: 0.416 
#Thpar b (lobes): 2 
#Thpar c: 0.4 
#Thpar d: 0 
0.93589 0
0.99522 0.00155
1.05593 0.00374
1.11787 0.00718
1.18092 0.01183
1.24494 0.01767
1.30977 0.02468
1.37527 0.03282
1.44129 0.04205
1.50766 0.05231
1.57422 0.06357
1.64083 0.07574
1.70731 0.08879
1.77352 0.10263
1.83928 0.11719
1.90445 0.1324
1.96888 0.14818
2.03241 0.16445
2.0949 0.18113
2.15621 0.19812
2.21622 0.21533
2.27479 0.23269
2.33181 0.25009
2.38717 0.26745
2.44077 0.28467
2.49252 0.30167
2.54234 0.31836
2.59015 0.33466
2.6359 0.35047
2.67953 0.36571
2.72101 0.38031
2.76031 0.39419
2.79742 0.40728
2.83232 0.4195
2.86504 0.4308
2.89558 0.44112
2.92398 0.45041
2.95028 0.4586
2.97454 0.46568
2.99681 0.47158
3.01718 0.4763
3.03572 0.47979
3.05253 0.48205
3.06772 0.48307
3.0814 0.48283
3.09368 0.48134
3.10469 0.47861
3.11458 0.47465
3.12347 0.46949
3.13151 0.46315
3.13886 0.45566
3.14566 0.44707
3.15208 0.43742
3.15826 0.42676
3.16438 0.41515
3.17058 0.40264
3.17704 0.38932
3.1839 0.37523
3.19133 0.36047
3.19947 0.3451
3.20849 0.32922
3.21851 0.31289
3.22968 0.29621
3.24213 0.27927
3.25599 0.26216
3.27139 0.24495
3.28842 0.22776
3.30719 0.21065
3.32779 0.19374
3.35032 0.1771
3.37484 0.16082
3.4014 0.14499
3.43008 0.12969
3.4609 0.11501
3.4939 0.10101
3.52908 0.08778
3.56647 0.07538
3.60605 0.06388
3.64781 0.05334
3.69172 0.04381
3.73774 0.03535
3.78581 0.028
3.83588 0.02179
3.88787 0.01677
3.94171 0.01296
3.99729 0.01037
4.05451 0.00903
4.11328 0.00895
4.17346 0.01011
4.23493 0.01252
4.29756 0.01616
4.36122 0.02102
4.42575 0.02706
4.491 0.03427
4.55683 0.0426
4.62308 0.05201
4.68959 0.06245
4.7562 0.07386
4.82275 0.08619
4.88908 0.09938
4.95504 0.11335
5.02046 0.12803
5.0852 0.14334
5.1491 0.15922
5.21201 0.17556
5.27381 0.19229
5.33434 0.20933
5.3935 0.22657
5.45114 0.24394
5.50717 0.26134
5.56147 0.27868
5.61396 0.29587
5.66455 0.31283
5.71316 0.32946
5.75973 0.34567
5.8042 0.36139
5.84653 0.37653
5.88669 0.39101
5.92466 0.40476
5.96043 0.4177
5.99401 0.42977
6.0254 0.44091
6.05464 0.45105
6.08177 0.46015
6.10682 0.46816
6.12987 0.47503
6.15097 0.48073
6.17022 0.48524
6.18771 0.48852
6.20352 0.49057
6.21778 0.49137
6.23059 0.49091
6.24209 0.48921
6.2524 0.48627
6.26167 0.4821
6.27003 0.47673
6.27763 0.47019
6.28463 0.46251
6.29118 0.45373
6.29743 0.4439
6.30356 0.43307
6.30971 0.4213
6.31605 0.40865
6.32273 0.39519
6.32992 0.38099
6.33777 0.36611
6.34642 0.35065
6.35602 0.33468
6.36672 0.31829
6.37866 0.30156
6.39195 0.28458
6.40673 0.26744
6.4231 0.25024
6.44117 0.23305
6.46105 0.21597
6.48281 0.1991
6.50653 0.18251
6.53229 0.16631
6.56013 0.15056
6.5901 0.13536
6.62223 0.12079
6.65656 0.10692
6.69308 0.09383
6.7318 0.08158
6.7727 0.07023
6.81577 0.05986
6.86096 0.05051
6.90823 0.04224
6.95752 0.03508
7.00877 0.02908
7.06188 0.02427
7.11679 0.02066
7.17338 0.01829
7.23155 0.01717
7.29119 0.01729
7.35217 0.01867
7.41436 0.02129
7.47763 0.02514
7.54183 0.03021
7.60682 0.03646
7.67244 0.04386
7.73854 0.05238
7.80497 0.06197
7.87156 0.07258
7.93815 0.08415
8.00459 0.09664
8.07071 0.10996
8.13636 0.12406
8.20139 0.13885
8.26564 0.15427
8.32896 0.17023
8.39121 0.18664
8.45226 0.20343
8.51197 0.22051
8.57022 0.23778
8.6269 0.25516
8.68189 0.27256
8.73511 0.28988
8.78645 0.30704
8.83585 0.32394
8.88323 0.34051
8.92853 0.35664
8.97171 0.37226
9.01273 0.3873
9.05156 0.40165
9.0882 0.41527
9.12264 0.42807
9.15489 0.43998
9.18498 0.45095
9.21293 0.46092
9.23879 0.46983
9.26262 0.47764
9.28448 0.48432
9.30445 0.48982
9.32262 0.49411
9.33908 0.49718
9.35394 0.49902
9.3673 0.4996
9.37931 0.49893
9.39007 0.49701
9.39973 0.49385
9.40843 0.48948
9.41631 0.4839
9.42353 0.47716
9.43024 0.46929
9.43659 0.46033
9.44275 0.45032
9.44887 0.43933
9.45511 0.4274
9.46164 0.41461
9.46861 0.40101
9.47618 0.38669
9.4845 0.37171
9.49371 0.35615
9.50396 0.3401
9.5154 0.32365
9.52814 0.30687
9.54232 0.28985
9.55805 0.2727
9.57544 0.25548
9.59459 0.23831
9.6156 0.22126
9.63854 0.20443
9.66349 0.1879
9.6905 0.17177
9.71963 0.15611
9.75091 0.14102
9.78437 0.12656
9.82003 0.11282
9.85788 0.09986
9.89793 0.08776
9.94015 0.07659
9.98451 0.06639
10.03096 0.05722
10.07947 0.04913
10.12995 0.04217
10.18234 0.03637
10.23655 0.03176
10.29249 0.02837
10.35006 0.02621
10.40913 0.0253
10.4696 0.02564
10.53133 0.02723
10.59419 0.03007
10.65804 0.03413
10.72274 0.0394
10.78813 0.04585
10.85406 0.05345
10.92038 0.06215
10.98692 0.07192
11.05353 0.0827
11.12005 0.09444
11.18631 0.10707
11.25217 0.12053
11.31746 0.13475
11.38203 0.14966
11.44573 0.16517
11.50842 0.18122
11.56996 0.1977
11.63021 0.21455
11.68905 0.23167
11.74637 0.24896
11.80204 0.26635
11.85596 0.28374
11.90805 0.30104
11.95823 0.31816
12.00641 0.33501
12.05253 0.35151
12.09655 0.36756
12.13843 0.38309
12.17812 0.39801
12.21563 0.41224
12.25093 0.42572
12.28404 0.43837
12.31498 0.45013
12.34376 0.46093
12.37044 0.47072
12.39507 0.47944
12.41769 0.48706
12.4384 0.49354
12.45727 0.49883
12.47439 0.50292
12.48986 0.50578
12.5038 0.50739
12.51633 0.50776
12.52756 0.50687
12.53764 0.50474
12.5467 0.50137
12.55489 0.49679
12.56235 0.49101
12.56924 0.48407
12.57571 0.47601
12.58193 0.46687
12.58804 0.45669
12.59422 0.44553
12.60062 0.43345
12.6074 0.42051
12.61471 0.40678
12.62272 0.39234
12.63156 0.37725
12.64138 0.36161
12.65234 0.34548
12.66455 0.32896
12.67815 0.31213
12.69325 0.29509
12.70998 0.27792
12.72843 0.2607
12.74869 0.24354
12.77087 0.22653
12.79502 0.20974
12.82121 0.19328
12.8495 0.17722
12.87993 0.16165
12.91253 0.14666
12.94732 0.13232
12.98431 0.11871
13.02349 0.10589
13.06486 0.09395
13.10838 0.08294
13.15401 0.07291
13.20172 0.06392
13.25143 0.05603
13.30308 0.04926
13.35659 0.04367
13.41186 0.03927
13.46879 0.03608
13.52729 0.03414
13.58722 0.03344
13.64847 0.034
13.7109 0.0358
13.77438 0.03885
13.83876 0.04312
13.90389 0.0486
13.96963 0.05525
14.03582 0.06304
14.10229 0.07193
14.16889 0.08187
14.23547 0.09282
14.30185 0.10472
14.36789 0.1175
14.43342 0.13109
14.49829 0.14544
14.56235 0.16045
14.62546 0.17607
14.68747 0.19219
14.74824 0.20875
14.80765 0.22564
14.86558 0.2428
14.92191 0.26012
14.97653 0.27751
15.02936 0.29489
15.0803 0.31217
15.12927 0.32925
15.17621 0.34604
15.22106 0.36247
15.26379 0.37843
15.30434 0.39386
15.34271 0.40867
15.37888 0.42278
15.41286 0.43612
15.44465 0.44862
15.47428 0.46021
15.50178 0.47084
15.5272 0.48045
15.55061 0.48899
15.57206 0.49642
15.59164 0.50269
15.60944 0.50778
15.62555 0.51166
15.64008 0.5143
15.65315 0.5157
15.66488 0.51585
15.67539 0.51475
15.68484 0.51241
15.69335 0.50883
15.70108 0.50403
15.70818 0.49806
15.71479 0.49092
15.72109 0.48267
15.72723 0.47334
15.73336 0.46299
15.73966 0.45166
15.74627 0.43943
15.75335 0.42635
15.76106 0.4125
15.76956 0.39794
15.77898 0.38275
15.78947 0.36701
15.80117 0.35081
15.81421 0.33424
15.82871 0.31736
15.84478 0.30029
15.86254 0.2831
15.88208 0.26589
15.9035 0.24875
15.92686 0.23177
15.95224 0.21503
15.9797 0.19863
16.00928 0.18265
16.04102 0.16718
16.07495 0.15229
16.11107 0.13807
16.14939 0.12459
16.1899 0.11192
16.23258 0.10013
16.27739 0.08928
16.32428 0.07943
16.37321 0.07063
16.42411 0.06293
16.47689 0.05636
16.53148 0.05097
16.58777 0.04677
16.64567 0.0438
16.70505 0.04207
16.76579 0.04159
16.82778 0.04236
16.89086 0.04438
16.9549 0.04764
17.01976 0.05212
17.08528 0.0578
17.1513 0.06465
17.21768 0.07263
17.28425 0.0817
17.35086 0.09183
17.41734 0.10294
17.48353 0.11499
17.54928 0.12792
17.61443 0.14165
17.67882 0.15611
17.74232 0.17124
17.80478 0.18694
17.86606 0.20315
17.92602 0.21977
17.98454 0.23671
18.04152 0.2539
18.09682 0.27124
18.15037 0.28864
18.20206 0.30601
18.25181 0.32325
18.29956 0.34029
18.34525 0.35703
18.38881 0.37338
18.43023 0.38926
18.46946 0.40459
18.5065 0.41928
18.54133 0.43326
18.57398 0.44646
18.60446 0.45881
18.63279 0.47024
18.65903 0.4807
18.68322 0.49013
18.70544 0.49848
18.72574 0.50571
18.74423 0.51178
18.76099 0.51666
18.77613 0.52033
18.78976 0.52276
18.802 0.52394
18.81298 0.52388
18.82283 0.52256
18.83169 0.52
18.83971 0.51621
18.84704 0.51122
18.85383 0.50503
18.86023 0.4977
18.86641 0.48926
18.87253 0.47975
18.87874 0.46923
18.88521 0.45775
18.89209 0.44536
18.89953 0.43214
18.9077 0.41816
18.91674 0.40349
18.9268 0.3882
18.93801 0.37238
18.9505 0.35611
18.96441 0.33947
18.97985 0.32256
18.99693 0.30546
19.01576 0.28826
19.03643 0.27106
19.05901 0.25394
19.08359 0.23699
19.11022 0.2203
19.13897 0.20397
19.16985 0.18807
19.20292 0.17269
19.23817 0.15791
19.27563 0.14381
19.31528 0.13047
19.35711 0.11794
19.40108 0.10631
19.44716 0.09563
19.4953 0.08596
19.54543 0.07734
19.59748 0.06983
19.65137 0.06346
19.707 0.05827
19.76428 0.05429
19.82309 0.05153
19.88331 0.05001
19.94482 0.04975
20.00749 0.05073
20.07117 0.05297
20.13572 0.05644
20.201 0.06112
20.26684 0.06701
20.3331 0.07405
20.39962 0.08222
20.46623 0.09148
20.53277 0.10178
20.5991 0.11306
20.66504 0.12527
20.73044 0.13833
20.79516 0.15219
20.85903 0.16678
20.92191 0.18201
20.98367 0.19781
21.04416 0.21409
21.10327 0.23077
21.16087 0.24776
21.21684 0.26498
21.27109 0.28234
21.32352 0.29974
21.37405 0.31709
21.4226 0.33431
21.4691 0.3513
21.5135 0.36798
21.55577 0.38425
21.59586 0.40004
21.63377 0.41527
21.66947 0.42984
21.70298 0.4437
21.73431 0.45675
21.76348 0.46895
21.79054 0.48022
21.81553 0.4905
21.83851 0.49975
21.85956 0.50791
21.87875 0.51494
21.89618 0.52081
21.91195 0.52548
21.92616 0.52893
21.93893 0.53115
21.95039 0.53212
21.96067 0.53184
21.9699 0.53031
21.97824 0.52754
21.98582 0.52354
21.9928 0.51833
21.99934 0.51195
22.00559 0.50443
22.01171 0.4958
22.01787 0.48611
22.02421 0.47542
22.03091 0.46377
22.03812 0.45124
22.04598 0.43789
22.05466 0.42378
22.0643 0.40899
22.07504 0.39361
22.08701 0.3777
22.10035 0.36136
22.11517 0.34467
22.1316 0.32772
22.14973 0.3106
22.16966 0.29339
22.19148 0.27619
22.21526 0.2591
22.24108 0.24219
22.26899 0.22555
22.29902 0.20929
22.33123 0.19347
22.36562 0.17819
22.40221 0.16352
22.441 0.14955
22.48197 0.13634
22.5251 0.12397
22.57036 0.11249
22.61769 0.10198
22.66705 0.09248
22.71835 0.08406
22.77152 0.07674
22.82648 0.07057
22.88312 0.06559
22.94134 0.06181
23.00103 0.05927
23.06204 0.05796
23.12427 0.05791
23.18757 0.05911
23.2518 0.06156
23.31681 0.06524
23.38245 0.07013
23.44856 0.07622
23.515 0.08346
23.58159 0.09182
23.64818 0.10126
23.71461 0.11173
23.78072 0.12318
23.84635 0.13554
23.91136 0.14874
23.97558 0.16273
24.03887 0.17744
24.10108 0.19277
24.16209 0.20865
24.22176 0.22501
24.27996 0.24175
24.33659 0.25879
24.39153 0.27604
24.44469 0.29341
24.49598 0.31081
24.54531 0.32814
24.59263 0.34533
24.63786 0.36227
24.68098 0.37889
24.72193 0.39508
24.76069 0.41078
24.79726 0.4259
24.83164 0.44035
24.86382 0.45408
24.89384 0.46699
24.92172 0.47903
24.94752 0.49013
24.97129 0.50024
24.99309 0.5093
25.013 0.51727
25.03112 0.5241
25.04753 0.52977
25.06233 0.53423
25.07566 0.53747
25.08762 0.53948
25.09835 0.54023
25.10798 0.53974
25.11665 0.53799
25.12451 0.535
25.13171 0.5308
25.1384 0.52539
25.14474 0.51881
25.1509 0.51109
25.15702 0.50227
25.16327 0.49241
25.16982 0.48155
25.1768 0.46975
25.18439 0.45707
25.19273 0.44358
25.20197 0.42935
25.21226 0.41445
25.22373 0.39897
25.23652 0.38298
25.25074 0.36658
25.26652 0.34984
25.28397 0.33285
25.30318 0.3157
25.32425 0.29849
25.34725 0.28131
25.37226 0.26423
25.39934 0.24736
25.42853 0.23079
25.45988 0.21459
25.49341 0.19886
25.52913 0.18368
25.56705 0.16913
25.60717 0.15528
25.64945 0.14221
25.69388 0.12999
25.7404 0.11867
25.78897 0.10833
25.83951 0.09902
25.89196 0.09078
25.94623 0.08365
26.00222 0.07769
26.05983 0.07291
26.11895 0.06934
26.17946 0.06701
26.24122 0.06592
26.30412 0.06609
26.368 0.0675
26.43272 0.07016
26.49813 0.07405
26.56407 0.07915
26.6304 0.08544
26.69695 0.09288
26.76356 0.10143
26.83007 0.11105
26.89633 0.12169
26.96217 0.13329
27.02744 0.1458
27.09198 0.15915
27.15566 0.17327
27.21831 0.18808
27.27981 0.20352
27.34002 0.21949
27.39882 0.23592
27.45608 0.25272
27.5117 0.2698
27.56557 0.28707
27.6176 0.30445
27.66771 0.32185
27.71583 0.33916
27.76189 0.35631
27.80585 0.37321
27.84765 0.38975
27.88728 0.40587
27.92472 0.42148
27.95996 0.43648
27.993 0.45082
28.02387 0.4644
28.05259 0.47717
28.0792 0.48905
28.10376 0.49999
28.12633 0.50992
28.14697 0.5188
28.16579 0.52657
28.18285 0.53321
28.19828 0.53867
28.21217 0.54292
28.22466 0.54595
28.23585 0.54774
28.2459 0.54828
28.25493 0.54757
28.26309 0.54561
28.27053 0.54241
28.27741 0.53799
28.28387 0.53238
28.29008 0.5256
28.2962 0.51769
28.30238 0.50869
28.30879 0.49865
28.31558 0.48762
28.32291 0.47567
28.33094 0.46284
28.33981 0.44922
28.34967 0.43487
28.36066 0.41987
28.37291 0.40429
28.38656 0.38823
28.40171 0.37176
28.41849 0.35497
28.43699 0.33795
28.45732 0.32078
28.47955 0.30357
28.50376 0.2864
28.53002 0.26935
28.55837 0.25253
28.58887 0.23601
28.62153 0.21989
28.65639 0.20425
28.69345 0.18917
28.7327 0.17473
28.77414 0.16101
28.81772 0.14808
28.86343 0.13601
28.91119 0.12486
28.96097 0.11469
29.01268 0.10555
29.06624 0.0975
29.12156 0.09058
29.17855 0.08481
29.23709 0.08024
29.29706 0.07689
29.35835 0.07477
29.42082 0.07389
29.48433 0.07427
29.54873 0.0759
29.61389 0.07878
29.67964 0.08287
29.74584 0.08818
29.81232 0.09467
29.87892 0.1023
29.94549 0.11104
30.01187 0.12084
30.07789 0.13165
30.1434 0.14341
30.20825 0.15607
30.27229 0.16956
30.33536 0.1838
30.39733 0.19872
30.45807 0.21426
30.51743 0.23031
30.57531 0.24681
30.63159 0.26366
30.68616 0.28079
30.73893 0.29808
30.78981 0.31547
30.83872 0.33286
30.8856 0.35015
30.93039 0.36726
30.97304 0.3841
31.01353 0.40058
31.05183 0.41662
31.08793 0.43213
31.12184 0.44702
31.15356 0.46123
31.18312 0.47468
31.21056 0.4873
31.23592 0.49903
31.25927 0.50979
31.28066 0.51955
31.30018 0.52824
31.31793 0.53582
31.33399 0.54225
31.34847 0.54751
31.36149 0.55155
31.37318 0.55437
31.38366 0.55594
31.39308 0.55627
31.40156 0.55534
31.40927 0.55316
31.41635 0.54975
31.42296 0.54513
31.42925 0.53931
31.43538 0.53234
31.44152 0.52423
31.44782 0.51505
31.45444 0.50484
31.46154 0.49365
31.46928 0.48153
31.4778 0.46857
31.48725 0.45481
31.49778 0.44035
31.50952 0.42524
31.5226 0.40958
31.53715 0.39343
31.55327 0.3769
31.57108 0.36007
31.59068 0.34301
31.61215 0.32584
31.63558 0.30862
31.66102 0.29146
31.68854 0.27445
31.71819 0.25767
31.75 0.24122
31.784 0.22517
31.82019 0.20962
31.85858 0.19465
31.89915 0.18033
31.9419 0.16674
31.98677 0.15395
32.03373 0.14203
32.08272 0.13105
32.13368 0.12105
32.18652 0.1121
32.24116 0.10424
32.29751 0.09751
32.35545 0.09195
32.41487 0.08758
32.47566 0.08444
32.53768 0.08253
32.60079 0.08188
32.66486 0.08247
32.72974 0.08431
32.79528 0.0874
32.86132 0.09171
32.92771 0.09722
32.99428 0.1039
33.06088 0.11173
33.12736 0.12065
33.19354 0.13063
33.25927 0.14161
33.3244 0.15353
33.38877 0.16634
33.45224 0.17996
33.51466 0.19432
33.5759 0.20936
33.63582 0.22499
33.6943 0.24112
33.75122 0.25769
33.80648 0.27459
33.85996 0.29175
33.9116 0.30907
33.96129 0.32647
34.00897 0.34384
34.05459 0.36111
34.09809 0.37818
34.13944 0.39497
34.1786 0.41138
34.21557 0.42733
34.25034 0.44273
34.28292 0.45752
34.31333 0.4716
34.3416 0.48491
34.36777 0.49738
34.3919 0.50895
34.41406 0.51954
34.43431 0.52911
34.45274 0.53762
34.46945 0.545
34.48454 0.55124
34.49813 0.55628
34.51032 0.56012
34.52127 0.56272
34.53108 0.56408
34.53992 0.56419
34.54791 0.56305
34.55522 0.56066
34.56199 0.55704
34.56839 0.5522
34.57457 0.54619
34.58068 0.53901
34.5869 0.53072
34.59338 0.52136
34.60027 0.51097
34.60774 0.49962
34.61593 0.48735
34.625 0.47425
34.63509 0.46036
34.64634 0.44578
34.65887 0.43057
34.67283 0.41482
34.68832 0.3986
34.70546 0.38201
34.72434 0.36513
34.74506 0.34805
34.76771 0.33086
34.79235 0.31365
34.81905 0.29651
34.84785 0.27953
34.87881 0.2628
34.91194 0.24641
34.94727 0.23044
34.98479 0.21499
35.02451 0.20012
35.0664 0.18592
35.11044 0.17246
35.15659 0.15982
35.20479 0.14806
35.25498 0.13724
35.30709 0.12742
35.36103 0.11865
35.41672 0.11098
35.47404 0.10445
35.5329 0.09909
35.59316 0.09494
35.65471 0.09201
35.71741 0.09031
35.78112 0.08987
35.8457 0.09068
35.911 0.09274
35.97686 0.09603
36.04313 0.10055
36.10964 0.10627
36.17626 0.11315
36.2428 0.12117
36.30911 0.13028
36.37504 0.14043
36.44042 0.15157
36.50511 0.16365
36.56896 0.1766
36.63181 0.19035
36.69353 0.20484
36.75398 0.21998
36.81304 0.2357
36.87059 0.25192
36.92651 0.26855
36.98071 0.28551
37.03308 0.3027
37.08355 0.32004
37.13203 0.33744
37.17847 0.3548
37.22281 0.37204
37.26501 0.38907
37.30503 0.40579
37.34287 0.42213
37.37851 0.43799
37.41195 0.4533
37.44321 0.46797
37.47231 0.48192
37.49931 0.49509
37.52423 0.50741
37.54716 0.51881
37.56815 0.52923
37.58728 0.53863
37.60466 0.54694
37.62038 0.55413
37.63454 0.56016
37.64727 0.565
37.65869 0.56862
37.66893 0.57101
37.67814 0.57216
37.68645 0.57205
37.69401 0.57069
37.70097 0.56809
37.7075 0.56426
37.71374 0.55922
37.71986 0.553
37.72602 0.54563
37.73238 0.53715
37.73909 0.52761
37.74631 0.51705
37.7542 0.50554
37.76291 0.49312
37.77258 0.47988
37.78335 0.46587
37.79537 0.45117
37.80875 0.43586
37.82362 0.42002
37.8401 0.40374
37.85828 0.38709
37.87827 0.37017
37.90015 0.35306
37.924 0.33586
37.94988 0.31866
37.97785 0.30154
38.00795 0.28459
38.04022 0.26792
38.07468 0.25159
38.11134 0.23571
38.1502 0.22034
38.19124 0.20559
38.23444 0.19151
38.27976 0.17819
38.32716 0.16569
38.37657 0.15409
38.42793 0.14344
38.48117 0.13379
38.53618 0.12521
38.59287 0.11773
38.65114 0.1114
38.71086 0.10625
38.77192 0.1023
38.83418 0.09958
38.89751 0.09811
38.96177 0.09788
39.0268 0.0989
39.09246 0.10117
39.15858 0.10468
39.22502 0.10941
39.29162 0.11532
39.35821 0.12241
39.42463 0.13061
39.49073 0.1399
39.55634 0.15023
39.62132 0.16154
39.68552 0.17377
39.74878 0.18687
39.81096 0.20075
39.87193 0.21536
39.93155 0.2306
39.98971 0.24642
40.04628 0.26271
40.10117 0.2794
40.15427 0.2964
40.2055 0.31363
40.25477 0.33098
40.30202 0.34838
40.3472 0.36573
40.39024 0.38294
40.43113 0.39992
40.46983 0.41658
40.50633 0.43284
40.54063 0.44862
40.57275 0.46382
40.6027 0.47837
40.63052 0.49219
40.65625 0.50522
40.67996 0.51739
40.7017 0.52862
40.72156 0.53887
40.73961 0.54808
40.75597 0.55621
40.77073 0.5632
40.78401 0.56903
40.79593 0.57366
40.80662 0.57707
40.81622 0.57925
40.82486 0.58018
40.8327 0.57985
40.83988 0.57828
40.84656 0.57546
40.8529 0.57142
40.85905 0.56618
40.86518 0.55976
40.87144 0.55219
40.87799 0.54353
40.88499 0.53381
40.8926 0.52308
40.90097 0.51141
40.91024 0.49884
40.92056 0.48546
40.93207 0.47133
40.9449 0.45652
40.95917 0.44112
40.975 0.42519
40.9925 0.40884
41.01177 0.39214
41.03289 0.37518
41.05596 0.35805
41.08103 0.34084
41.10817 0.32364
41.13743 0.30655
41.16885 0.28964
41.20244 0.27302
41.23824 0.25676
41.27623 0.24096
41.31641 0.2257
41.35876 0.21105
41.40325 0.1971
41.44984 0.18391
41.49847 0.17157
41.54907 0.16012
41.60158 0.14964
41.6559 0.14018
41.71194 0.13178
41.7696 0.1245
41.82877 0.11837
41.88932 0.11342
41.95112 0.10968
42.01405 0.10718
42.07796 0.10591
42.1427 0.1059
42.20813 0.10714
42.27409 0.10962
42.34042 0.11334
42.40698 0.11827
42.47359 0.12439
42.54009 0.13167
42.60634 0.14007
42.67216 0.14954
42.73741 0.16004
42.80193 0.17151
42.86558 0.1839
42.9282 0.19713
42.98966 0.21115
43.04983 0.22587
43.10858 0.24122
43.16579 0.25712
43.22136 0.27349
43.27517 0.29024
43.32715 0.30728
43.3772 0.32453
43.42525 0.3419
43.47125 0.3593
43.51514 0.37663
43.55688 0.39381
43.59644 0.41074
43.63381 0.42734
43.66898 0.44352
43.70195 0.4592
43.73275 0.4743
43.76141 0.48873
43.78796 0.50242
43.81245 0.51531
43.83496 0.52731
43.85555 0.53838
43.8743 0.54846
43.89132 0.55748
43.9067 0.56541
43.92055 0.57221
43.93299 0.57783
43.94415 0.58226
43.95416 0.58546
43.96316 0.58742
43.9713 0.58813
43.97872 0.58759
43.98558 0.5858
43.99203 0.58278
43.99823 0.57853
44.00435 0.57308
44.01054 0.56646
44.01695 0.5587
44.02376 0.54985
44.03111 0.53995
44.03916 0.52906
44.04806 0.51723
44.05796 0.50452
44.06898 0.491
44.08128 0.47675
44.09497 0.46183
44.11017 0.44633
44.127 0.43033
44.14556 0.41391
44.16594 0.39715
44.18823 0.38016
44.21251 0.36301
44.23883 0.34579
44.26725 0.32861
44.29781 0.31154
44.33055 0.29468
44.36547 0.27811
44.4026 0.26193
44.44192 0.24621
44.48342 0.23105
44.52707 0.21651
44.57284 0.20269
44.62067 0.18964
44.67051 0.17745
44.72227 0.16616
44.77589 0.15585
44.83127 0.14657
44.8883 0.13836
44.94689 0.13127
45.00691 0.12534
45.06823 0.1206
45.13074 0.11708
45.19427 0.11478
45.25871 0.11373
45.32388 0.11394
45.38965 0.11539
45.45586 0.11809
45.52235 0.12202
45.58895 0.12715
45.65552 0.13348
45.72189 0.14095
45.7879 0.14953
45.85339 0.15919
45.91822 0.16986
45.98222 0.18149
46.04526 0.19403
46.1072 0.2074
46.16789 0.22154
46.22722 0.23637
46.28505 0.25182
46.34127 0.26781
46.39579 0.28425
46.4485 0.30106
46.49932 0.31815
46.54817 0.33542
46.59498 0.3528
46.6397 0.37019
46.68229 0.38751
46.72271 0.40465
46.76095 0.42153
46.79698 0.43806
46.83082 0.45416
46.86247 0.46975
46.89197 0.48473
46.91934 0.49904
46.94464 0.5126
46.96792 0.52534
46.98926 0.53719
47.00872 0.54809
47.02641 0.55799
47.04242 0.56683
47.05686 0.57457
47.06984 0.58116
47.08149 0.58658
47.09194 0.5908
47.10132 0.59378
47.10978 0.59553
47.11746 0.59603
47.12452 0.59527
47.13112 0.59327
47.1374 0.59003
47.14353 0.58557
47.14967 0.57992
47.15598 0.5731
47.16262 0.56515
47.16974 0.55612
47.17749 0.54605
47.18604 0.53499
47.19553 0.523
47.20609 0.51015
47.21787 0.4965
47.23099 0.48212
47.24559 0.4671
47.26176 0.45151
47.27963 0.43542
47.29928 0.41894
47.32081 0.40214
47.3443 0.38511
47.36981 0.36794
47.3974 0.35073
47.42711 0.33355
47.45899 0.31651
47.49305 0.2997
47.52931 0.28319
47.56777 0.26708
47.60841 0.25145
47.65122 0.23639
47.69616 0.22198
47.74318 0.20828
47.79224 0.19537
47.84325 0.18333
47.89615 0.17221
47.95085 0.16207
48.00724 0.15297
48.06523 0.14495
48.1247 0.13806
48.18553 0.13233
48.24758 0.1278
48.31073 0.12448
48.37483 0.1224
48.43973 0.12157
48.50528 0.12199
48.57134 0.12366
48.63773 0.12657
48.70431 0.1307
48.77091 0.13605
48.83738 0.14257
48.90355 0.15024
48.96926 0.15901
49.03437 0.16884
49.09872 0.17968
49.16216 0.19147
49.22454 0.20416
49.28574 0.21767
49.34562 0.23193
49.40405 0.24688
49.46092 0.26242
49.51612 0.27849
49.56956 0.295
49.62113 0.31187
49.67076 0.32899
49.71838 0.34629
49.76394 0.36368
49.80737 0.38107
49.84865 0.39835
49.88775 0.41546
49.92465 0.43228
49.95935 0.44875
49.99186 0.46477
50.0222 0.48025
50.05041 0.49513
50.07651 0.50931
50.10058 0.52274
50.12268 0.53533
50.14287 0.54702
50.16125 0.55775
50.1779 0.56747
50.19295 0.57612
50.20649 0.58367
50.21864 0.59006
50.22955 0.59527
50.23933 0.59928
50.24814 0.60205
50.25611 0.60359
50.2634 0.60387
50.27016 0.6029
50.27655 0.60068
50.28272 0.59723
50.28884 0.59256
50.29506 0.58671
50.30155 0.57969
50.30846 0.57155
50.31595 0.56234
50.32416 0.55209
50.33326 0.54086
50.34338 0.52872
50.35467 0.51573
50.36725 0.50195
50.38125 0.48746
50.39679 0.47233
50.41398 0.45665
50.43292 0.44049
50.4537 0.42394
50.4764 0.4071
50.50111 0.39004
50.52787 0.37286
50.55674 0.35564
50.58777 0.33848
50.62097 0.32148
50.65636 0.30471
50.69395 0.28826
50.73374 0.27223
50.7757 0.25669
50.8198 0.24174
50.86601 0.22744
50.91428 0.21387
50.96453 0.20111
51.01669 0.18922
51.07069 0.17826
51.12643 0.1683
51.18381 0.15938
51.24271 0.15156
51.30301 0.14486
51.3646 0.13934
51.42733 0.13501
51.49108 0.13191
51.55568 0.13004
51.62099 0.12942
51.68687 0.13005
51.75315 0.13194
51.81967 0.13506
51.88628 0.1394
51.95282 0.14495
52.01913 0.15167
52.08504 0.15953
52.15041 0.16849
52.21507 0.1785
52.27888 0.18951
52.3417 0.20146
52.40338 0.21429
52.4638 0.22793
52.52281 0.24232
52.58031 0.25738
52.63618 0.27302
52.69032 0.28917
52.74264 0.30575
52.79305 0.32266
52.84147 0.33982
52.88784 0.35715
52.93211 0.37454
52.97425 0.39191
53.0142 0.40917
53.05197 0.42624
53.08754 0.44301
53.12091 0.4594
53.1521 0.47533
53.18114 0.49072
53.20807 0.50548
53.23294 0.51954
53.2558 0.53282
53.27673 0.54526
53.29581 0.5568
53.31314 0.56736
53.3288 0.5769
53.34292 0.58536
53.35561 0.59271
53.36699 0.5989
53.3772 0.60391
53.38637 0.6077
53.39465 0.61026
53.40219 0.61158
53.40914 0.61165
53.41566 0.61046
53.4219 0.60803
53.42802 0.60437
53.43418 0.5995
53.44054 0.59344
53.44727 0.58623
53.45451 0.5779
53.46242 0.5685
53.47116 0.55808
53.48086 0.54669
53.49167 0.5344
53.50372 0.52127
53.51715 0.50736
53.53207 0.49275
53.5486 0.47752
53.56684 0.46175
53.58688 0.44552
53.60882 0.42892
53.63273 0.41203
53.65868 0.39494
53.68671 0.37775
53.71688 0.36054
53.74922 0.3434
53.78375 0.32642
53.82048 0.3097
53.8594 0.29332
53.90051 0.27737
53.94377 0.26193
53.98916 0.24708
54.03662 0.2329
54.0861 0.21947
54.13752 0.20685
54.19081 0.19512
54.24587 0.18433
54.30262 0.17454
54.36093 0.16581
54.4207 0.15817
54.4818 0.15168
54.5441 0.14636
54.60746 0.14224
54.67174 0.13934
54.73679 0.13769
54.80246 0.13729
54.8686 0.13814
54.93505 0.14023
55.00165 0.14357
55.06823 0.14812
55.13465 0.15387
55.20073 0.16079
55.26633 0.16884
55.33129 0.17799
55.39546 0.18817
55.45868 0.19934
55.52083 0.21145
55.58176 0.22443
55.64134 0.2382
55.69945 0.25271
55.75598 0.26787
55.81081 0.28361
55.86385 0.29984
55.91502 0.31648
55.96423 0.33344
56.01142 0.35064
56.05653 0.36798
56.09951 0.38538
56.14032 0.40274
56.17895 0.41997
56.21539 0.43699
56.24962 0.4537
56.28167 0.47002
56.31156 0.48586
56.33931 0.50115
56.36498 0.51579
56.38862 0.52972
56.41031 0.54287
56.43011 0.55516
56.44811 0.56652
56.46442 0.57691
56.47913 0.58627
56.49237 0.59454
56.50425 0.6017
56.5149 0.60769
56.52447 0.61249
56.53308 0.61607
56.5409 0.61842
56.54806 0.61952
56.55473 0.61937
56.56106 0.61797
56.5672 0.61533
56.57333 0.61146
56.5796 0.60638
56.58616 0.60012
56.59318 0.59271
56.60081 0.58419
56.6092 0.57462
56.61851 0.56402
56.62886 0.55248
56.64041 0.54003
56.65328 0.52676
56.6676 0.51273
56.68348 0.49801
56.70104 0.48268
56.72036 0.46682
56.74154 0.45052
56.76467 0.43386
56.7898 0.41693
56.81701 0.39982
56.84634 0.38262
56.87782 0.36541
56.91148 0.3483
56.94735 0.33136
56.98541 0.31469
57.02565 0.29838
57.06807 0.28251
57.11263 0.26716
57.15928 0.25242
57.20797 0.23837
57.25864 0.22507
57.3112 0.2126
57.36558 0.20102
57.42167 0.1904
57.47938 0.18079
57.53859 0.17224
57.59918 0.1648
57.66102 0.15851
57.72398 0.15339
57.78792 0.14948
57.85268 0.1468
57.91813 0.14536
57.9841 0.14517
58.05045 0.14624
58.11701 0.14855
58.18361 0.15209
58.25012 0.15685
58.31635 0.16281
58.38216 0.16993
58.44739 0.17817
58.51189 0.18749
58.5755 0.19785
58.63809 0.20919
58.69951 0.22145
58.75964 0.23457
58.81834 0.24847
58.87551 0.2631
58.93102 0.27836
58.98478 0.29419
59.03669 0.3105
59.08668 0.3272
59.13468 0.34421
59.18061 0.36144
59.22443 0.3788
59.2661 0.39619
59.3056 0.41354
59.34289 0.43074
59.378 0.44771
59.4109 0.46436
59.44164 0.4806
59.47022 0.49636
59.49671 0.51154
59.52114 0.52606
59.54359 0.53986
59.56412 0.55287
59.58282 0.565
59.59978 0.5762
59.61511 0.58642
59.62891 0.59559
59.64131 0.60368
59.65244 0.61063
59.66241 0.61642
59.67139 0.62101
59.6795 0.62438
59.6869 0.62652
59.69374 0.6274
59.70019 0.62704
59.70639 0.62542
59.7125 0.62257
59.71869 0.61848
59.72512 0.6132
59.73194 0.60674
59.73932 0.59914
59.74739 0.59044
59.75632 0.58068
59.76624 0.56992
59.77731 0.55821
59.78964 0.54562
59.80338 0.53221
59.81863 0.51806
59.83551 0.50323
59.85412 0.4878
59.87457 0.47186
59.89692 0.45549
59.92125 0.43878
59.94764 0.42181
59.97613 0.40468
60.00676 0.38747
60.03956 0.37027
60.07455 0.35318
60.11175 0.33628
60.15114 0.31967
60.1927 0.30342
60.23642 0.28764
60.28226 0.27239
60.33015 0.25776
60.38005 0.24383
60.43187 0.23067
60.48554 0.21835
60.54097 0.20694
60.59806 0.19648
60.65669 0.18705
60.71675 0.17869
60.77812 0.17144
60.84065 0.16535
60.90422 0.16044
60.96868 0.15674
61.03388 0.15427
61.09966 0.15305
61.16588 0.15307
61.23237 0.15435
61.29898 0.15688
61.36554 0.16063
61.4319 0.1656
61.4979 0.17176
61.56337 0.17907
61.62818 0.1875
61.69216 0.19701
61.75517 0.20754
61.81706 0.21904
61.87772 0.23145
61.93699 0.24471
61.99478 0.25875
62.05095 0.27349
62.10541 0.28886
62.15807 0.30477
62.20883 0.32115
62.25761 0.33791
62.30436 0.35496
62.34902 0.37222
62.39154 0.38959
62.4319 0.40698
62.47006 0.42431
62.50603 0.44148
62.5398 0.4584
62.57138 0.47499
62.60081 0.49115
62.62812 0.50681
62.65336 0.52189
62.67658 0.53629
62.69785 0.54996
62.71726 0.56282
62.7349 0.57479
62.75086 0.58583
62.76525 0.59587
62.77818 0.60486
62.78979 0.61275
62.8002 0.61951
62.80956 0.62509
62.81799 0.62948
62.82565 0.63264
62.8327 0.63456
62.83928 0.63523
62.84556 0.63465
62.85169 0.63282
62.85783 0.62975
62.86415 0.62546
62.87079 0.61997
62.87793 0.61331
62.88571 0.60552
62.89428 0.59663
62.9038 0.58669
62.9144 0.57577
62.92622 0.5639
62.93939 0.55117
62.95403 0.53762
62.97025 0.52335
62.98817 0.50841
63.00789 0.49289
63.02948 0.47687
63.05302 0.46044
63.07859 0.44367
63.10625 0.42667
63.13603 0.40951
63.16797 0.3923
63.2021 0.37511
63.23843 0.35805
63.27696 0.34119
63.31767 0.32464
63.36055 0.30846
63.40555 0.29277
63.45264 0.27762
63.50175 0.26311
63.55283 0.2493
63.60579 0.23628
63.66054 0.22411
63.71698 0.21286
63.77502 0.20258
63.83453 0.19333
63.8954 0.18515
63.95749 0.1781
64.02067 0.17221
64.08479 0.16751
64.14972 0.16402
64.21529 0.16176
64.28136 0.16075
64.34776 0.16099
64.41434 0.16249
64.48094 0.16522
64.5474 0.16919
64.61355 0.17437
64.67925 0.18072
64.74434 0.18823
64.80866 0.19685
64.87207 0.20654
64.93442 0.21724
64.99558 0.2289
65.05542 0.24146
65.1138 0.25486
65.17062 0.26902
65.22577 0.28387
65.27915 0.29934
65.33066 0.31534
65.38023 0.3318
65.42779 0.34861
65.47328 0.36571
65.51665 0.38299
65.55786 0.40037
65.59689 0.41776
65.63372 0.43506
65.66835 0.4522
65.7008 0.46907
65.73107 0.48559
65.75921 0.50167
65.78525 0.51723
65.80926 0.5322
65.83129 0.54648
65.85143 0.56002
65.86975 0.57272
65.88636 0.58454
65.90135 0.59541
65.91485 0.60528
65.92696 0.61408
65.93783 0.62178
65.94758 0.62834
65.95636 0.63371
65.96431 0.63789
65.97158 0.64083
65.97833 0.64254
65.9847 0.643
65.99087 0.6422
65.99699 0.64015
66.00322 0.63687
66.00972 0.63238
66.01664 0.62668
66.02415 0.61983
66.0324 0.61184
66.04152 0.60277
66.05168 0.59266
66.063 0.58157
66.07562 0.56955
66.08967 0.55667
66.10526 0.54299
66.1225 0.5286
66.1415 0.51355
66.16234 0.49794
66.1851 0.48184
66.20987 0.46535
66.2367 0.44854
66.26564 0.4315
66.29673 0.41433
66.32999 0.39711
66.36546 0.37994
66.40312 0.3629
66.44297 0.34609
66.485 0.3296
66.52917 0.3135
66.57544 0.29789
66.62377 0.28285
66.67408 0.26845
66.7263 0.25478
66.78036 0.2419
66.83615 0.22988
66.89357 0.21879
66.95252 0.20868
67.01287 0.19962
67.07449 0.19163
67.13726 0.18478
67.20103 0.17909
67.26566 0.17459
67.33099 0.17131
67.39688 0.16927
67.46317 0.16847
67.5297 0.16893
67.59631 0.17064
67.66285 0.17359
67.72914 0.17776
67.79504 0.18314
67.86039 0.1897
67.92503 0.19741
67.98881 0.20621
68.0516 0.21607
68.11324 0.22695
68.17361 0.23877
68.23258 0.25148
68.29003 0.26501
68.34585 0.2793
68.39994 0.29426
68.4522 0.30983
68.50254 0.32591
68.5509 0.34243
68.59721 0.3593
68.64142 0.37644
68.68348 0.39374
68.72337 0.41113
68.76107 0.42851
68.79657 0.44579
68.82987 0.46288
68.861 0.4797
68.88997 0.49615
68.91684 0.51215
68.94164 0.52762
68.96444 0.54247
68.98531 0.55663
69.00434 0.57003
69.02161 0.58259
69.03723 0.59425
69.0513 0.60495
69.06394 0.61463
69.07529 0.62325
69.08546 0.63075
69.0946 0.63711
69.10286 0.64228
69.11038 0.64624
69.11732 0.64898
69.12382 0.65047
69.13005 0.65071
69.13617 0.6497
69.14234 0.64744
69.14871 0.64395
69.15545 0.63924
69.16271 0.63335
69.17064 0.62629
69.17941 0.61812
69.18914 0.60886
69.19999 0.59858
69.21208 0.58732
69.22555 0.57515
69.24052 0.56213
69.2571 0.54833
69.27539 0.53381
69.2955 0.51866
69.3175 0.50296
69.34147 0.48679
69.36748 0.47023
69.39558 0.45338
69.42582 0.43631
69.45822 0.41912
69.49282 0.40191
69.52962 0.38475
69.56861 0.36775
69.60978 0.35099
69.65311 0.33455
69.69857 0.31853
69.74609 0.30302
69.79563 0.28808
69.84711 0.2738
69.90045 0.26026
69.95557 0.24752
70.01237 0.23566
70.07073 0.22473
70.13054 0.2148
70.19167 0.20592
70.25401 0.19812
70.3174 0.19147
70.38171 0.18598
70.44678 0.18169
70.51247 0.17862
70.57862 0.1768
70.64508 0.17622
70.71167 0.17689
70.77826 0.17881
70.84467 0.18197
70.91074 0.18636
70.97632 0.19194
71.04126 0.1987
71.1054 0.20659
71.16859 0.21558
71.2307 0.22562
71.29159 0.23666
71.35113 0.24864
71.40919 0.2615
71.46567 0.27517
71.52045 0.28957
71.57343 0.30465
71.62454 0.32031
71.67369 0.33647
71.72081 0.35306
71.76585 0.36998
71.80877 0.38715
71.84952 0.40448
71.88808 0.42187
71.92444 0.43924
71.95861 0.45649
71.99059 0.47355
72.02041 0.49031
72.0481 0.50668
72.07371 0.5226
72.09729 0.53797
72.11891 0.5527
72.13865 0.56674
72.1566 0.57999
72.17286 0.5924
72.18753 0.6039
72.20072 0.61443
72.21256 0.62393
72.22318 0.63236
72.23271 0.63967
72.2413 0.64583
72.24909 0.65079
72.25624 0.65455
72.26289 0.65707
72.26921 0.65834
72.27536 0.65837
72.28149 0.65714
72.28776 0.65467
72.29433 0.65097
72.30137 0.64605
72.30902 0.63995
72.31744 0.6327
72.32678 0.62434
72.33717 0.61491
72.34876 0.60445
72.36167 0.59303
72.37603 0.58071
72.39197 0.56755
72.40957 0.55362
72.42895 0.53899
72.45019 0.52374
72.47338 0.50795
72.49858 0.49171
72.52585 0.47509
72.55525 0.45819
72.58679 0.4411
72.62053 0.4239
72.65646 0.40669
72.69458 0.38955
72.7349 0.37258
72.77739 0.35587
72.82201 0.3395
72.86872 0.32356
72.91748 0.30814
72.9682 0.29331
73.02082 0.27915
73.07525 0.26574
73.1314 0.25315
73.18916 0.24145
73.24841 0.23069
73.30904 0.22093
73.37092 0.21223
73.43391 0.20463
73.49788 0.19817
73.56267 0.19289
73.62813 0.18881
73.69412 0.18596
73.76047 0.18434
73.82703 0.18398
73.89364 0.18486
73.96014 0.187
74.02636 0.19037
74.09216 0.19497
74.15736 0.20075
74.22184 0.20771
74.28542 0.2158
74.34797 0.22497
74.40936 0.23519
74.46944 0.24639
74.5281 0.25853
74.58522 0.27153
74.64067 0.28533
74.69438 0.29985
74.74624 0.31503
74.79617 0.33079
74.84409 0.34703
74.88996 0.36368
74.93372 0.38065
74.97532 0.39785
75.01475 0.4152
75.05198 0.43259
75.08701 0.44995
75.11985 0.46718
75.15052 0.48418
75.17904 0.50088
75.20546 0.51719
75.22983 0.53301
75.25222 0.54828
75.27269 0.5629
75.29134 0.5768
75.30825 0.58992
75.32352 0.60218
75.33728 0.61351
75.34964 0.62387
75.36073 0.63319
75.37067 0.64143
75.37961 0.64854
75.3877 0.65449
75.39508 0.65925
75.40191 0.66279
75.40835 0.6651
75.41454 0.66616
75.42066 0.66597
75.42685 0.66453
75.43329 0.66184
75.44013 0.65793
75.44752 0.65281
75.45562 0.64651
75.46457 0.63907
75.47453 0.63052
75.48563 0.6209
75.49801 0.61028
75.51179 0.5987
75.52709 0.58623
75.54402 0.57293
75.56269 0.55887
75.58319 0.54413
75.60561 0.52878
75.63001 0.51291
75.65645 0.49659
75.68501 0.47992
75.7157 0.46298
75.74857 0.44586
75.78364 0.42866
75.8209 0.41145
75.86036 0.39434
75.90199 0.37741
75.94578 0.36075
75.99167 0.34445
76.03963 0.32859
76.08959 0.31326
76.14147 0.29854
76.1952 0.28451
76.25068 0.27124
76.30782 0.25879
76.3665 0.24725
76.4266 0.23666
76.488 0.22708
76.55057 0.21856
76.61417 0.21116
76.67865 0.2049
76.74387 0.19982
76.80967 0.19595
76.8759 0.19331
76.9424 0.19191
77.00901 0.19176
77.07557 0.19286
77.14192 0.19521
77.2079 0.19879
77.27336 0.20359
77.33814 0.20959
77.40209 0.21674
77.46507 0.22501
77.52693 0.23437
77.58754 0.24476
77.64677 0.25613
77.70451 0.26842
77.76063 0.28156
77.81504 0.29549
77.86763 0.31014
77.91833 0.32542
77.96706 0.34126
78.01374 0.35758
78.05833 0.37429
78.10079 0.39131
78.14108 0.40854
78.17917 0.4259
78.21507 0.4433
78.24877 0.46064
78.28029 0.47783
78.30965 0.49479
78.3369 0.51143
78.36207 0.52766
78.38523 0.54339
78.40644 0.55855
78.4258 0.57306
78.44338 0.58683
78.45929 0.5998
78.47363 0.6119
78.48653 0.62308
78.4981 0.63326
78.50847 0.64239
78.51779 0.65044
78.5262 0.65736
78.53384 0.66311
78.54087 0.66766
78.54744 0.67099
78.55371 0.67308
78.55984 0.67393
78.56599 0.67352
78.57231 0.67186
78.57897 0.66896
78.58612 0.66484
78.59393 0.65952
78.60253 0.65302
78.61207 0.64538
78.62271 0.63664
78.63457 0.62685
78.64778 0.61606
78.66247 0.60432
78.67875 0.5917
78.69672 0.57827
78.71649 0.56409
78.73814 0.54923
78.76175 0.53379
78.78738 0.51783
78.8151 0.50145
78.84495 0.48473
78.87696 0.46775
78.91116 0.45061
78.94756 0.4334
78.98615 0.4162
79.02693 0.39911
79.06987 0.38222
79.11494 0.36562
79.1621 0.34939
79.21127 0.33362
79.26241 0.31839
79.31542 0.30378
79.37022 0.28987
79.42672 0.27674
79.48481 0.26444
79.54436 0.25306
79.60527 0.24264
79.6674 0.23324
79.73061 0.22491
79.79476 0.2177
79.8597 0.21164
79.92529 0.20677
79.99137 0.20311
80.05778 0.20068
80.12437 0.19949
80.19097 0.19956
80.25742 0.20088
80.32356 0.20344
80.38925 0.20723
80.45431 0.21224
80.51861 0.21843
80.58198 0.22578
80.6443 0.23425
80.70542 0.24378
80.76521 0.25435
80.82355 0.26588
80.88032 0.27832
80.93542 0.2916
80.98874 0.30566
81.04019 0.32042
81.0897 0.33581
81.1372 0.35174
81.18262 0.36813
81.22592 0.3849
81.26706 0.40196
81.30603 0.41922
81.34279 0.43659
81.37736 0.45398
81.40973 0.4713
81.43994 0.48846
81.46801 0.50537
81.49399 0.52195
81.51794 0.5381
81.53991 0.55374
81.55999 0.56879
81.57825 0.58317
81.59481 0.59681
81.60976 0.60964
81.62321 0.62159
81.63528 0.63259
81.64611 0.6426
81.65583 0.65155
81.66458 0.65941
81.67251 0.66612
81.67976 0.67167
81.68649 0.67601
81.69286 0.67913
81.69903 0.68101
81.70515 0.68164
81.71138 0.68101
81.71789 0.67914
81.72483 0.67603
81.73236 0.6717
81.74063 0.66617
81.74979 0.65948
81.75998 0.65164
81.77134 0.64272
81.784 0.63275
81.79809 0.62179
81.81373 0.6099
81.83103 0.59714
81.85008 0.58357
81.87098 0.56926
81.8938 0.5543
81.91863 0.53877
81.94553 0.52273
81.97453 0.50628
82.00569 0.48951
82.03902 0.4725
82.07455 0.45534
82.11228 0.43812
82.1522 0.42094
82.1943 0.40388
82.23854 0.38703
82.28487 0.37048
82.33326 0.35432
82.38363 0.33864
82.43592 0.32351
82.49003 0.30902
82.54587 0.29524
82.60334 0.28224
82.66233 0.2701
82.72273 0.25888
82.78439 0.24863
82.84719 0.23941
82.91098 0.23127
82.97564 0.22426
83.04099 0.2184
83.1069 0.21373
83.1732 0.21028
83.23973 0.20807
83.30634 0.2071
83.37287 0.20738
83.43915 0.20891
83.50504 0.21169
83.57036 0.21569
83.63498 0.2209
83.69874 0.2273
83.76149 0.23484
83.8231 0.24349
83.88343 0.25321
83.94235 0.26394
83.99975 0.27564
84.05552 0.28822
84.10955 0.30165
84.16175 0.31583
84.21203 0.3307
84.26033 0.34619
84.30658 0.36221
84.35072 0.37867
84.39271 0.3955
84.43254 0.4126
84.47017 0.42988
84.5056 0.44726
84.53883 0.46465
84.56989 0.48195
84.5988 0.49907
84.6256 0.51593
84.65034 0.53244
84.67308 0.5485
84.69389 0.56405
84.71286 0.57899
84.73008 0.59325
84.74565 0.60676
84.75967 0.61944
84.77228 0.63123
84.78358 0.64206
84.79372 0.65189
84.80284 0.66066
84.81107 0.66832
84.81857 0.67484
84.82549 0.68018
84.83198 0.68431
84.83821 0.68722
84.84432 0.68888
84.85049 0.68929
84.85688 0.68845
84.86363 0.68637
84.87091 0.68305
84.87887 0.67851
84.88766 0.67278
84.89742 0.66588
84.90831 0.65786
84.92044 0.64875
84.93396 0.63861
84.94897 0.62749
84.9656 0.61544
84.98395 0.60253
85.00411 0.58883
85.02617 0.57441
85.05021 0.55934
85.07628 0.54371
85.10445 0.5276
85.13475 0.51109
85.16723 0.49427
85.20189 0.47723
85.23876 0.46005
85.27781 0.44283
85.31906 0.42566
85.36245 0.40863
85.40797 0.39183
85.45556 0.37534
85.50516 0.35926
85.5567 0.34367
85.6101 0.32864
85.66527 0.31427
85.72212 0.30061
85.78052 0.28776
85.84038 0.27577
85.90155 0.26471
85.96392 0.25464
86.02734 0.2456
86.09168 0.23765
86.15677 0.23083
86.22248 0.22518
86.28864 0.22072
86.3551 0.21748
86.4217 0.21548
86.48828 0.21472
86.55468 0.21522
86.62074 0.21697
86.68631 0.21995
86.75122 0.22417
86.81533 0.22959
86.8785 0.23618
86.94057 0.24392
87.00142 0.25276
87.06091 0.26265
87.11893 0.27355
87.17535 0.2854
87.23008 0.29814
87.28301 0.3117
87.33406 0.32601
87.38315 0.34099
87.4302 0.35657
87.47518 0.37267
87.51803 0.38921
87.55871 0.40608
87.5972 0.42322
87.6335 0.44053
87.6676 0.45792
87.69951 0.4753
87.72927 0.49257
87.75689 0.50966
87.78243 0.52646
87.80595 0.5429
87.82751 0.55888
87.8472 0.57433
87.8651 0.58916
87.8813 0.60329
87.89592 0.61666
87.90907 0.62919
87.92087 0.64082
87.93145 0.65149
87.94095 0.66114
87.94952 0.66972
87.95729 0.67718
87.96441 0.6835
87.97106 0.68863
87.97737 0.69256
87.98351 0.69525
87.98964 0.6967
87.99592 0.6969
88.00251 0.69584
88.00956 0.69354
88.01723 0.69001
88.02568 0.68527
88.03504 0.67933
88.04547 0.67224
88.0571 0.66403
88.07006 0.65474
88.08447 0.64442
88.10045 0.63313
88.11811 0.62093
88.13754 0.60788
88.15885 0.59405
88.18209 0.57951
88.20736 0.56435
88.2347 0.54863
88.26415 0.53244
88.29577 0.51587
88.32957 0.49901
88.36557 0.48193
88.40376 0.46474
88.44415 0.44753
88.4867 0.43037
88.53139 0.41338
88.57817 0.39662
88.62698 0.3802
88.67777 0.36419
88.73045 0.34869
88.78493 0.33377
88.84113 0.31952
88.89894 0.306
88.95823 0.29329
89.01891 0.28145
89.08082 0.27056
89.14384 0.26066
89.20784 0.25181
89.27265 0.24405
89.33813 0.23743
89.40414 0.23198
89.4705 0.22773
89.53706 0.2247
89.60367 0.22291
89.67016 0.22237
89.73637 0.22308
89.80215 0.22504
89.86734 0.22824
89.93178 0.23267
89.99534 0.23829
90.05786 0.24508
90.11921 0.25301
90.17925 0.26204
90.23786 0.27211
90.29492 0.28318
90.35033 0.29518
90.40398 0.30807
90.45578 0.32176
90.50565 0.33619
90.55351 0.35128
90.59931 0.36696
90.643 0.38314
90.68454 0.39974
90.7239 0.41666
90.76106 0.43384
90.79603 0.45117
90.8288 0.46856
90.8594 0.48593
90.88785 0.50317
90.91421 0.52022
90.93852 0.53696
90.96084 0.55333
90.98126 0.56922
90.99985 0.58457
91.01671 0.59929
91.03194 0.6133
91.04565 0.62652
91.05797 0.6389
91.06901 0.65037
91.07892 0.66087
91.08784 0.67033
91.0959 0.67873
91.10327 0.686
91.11008 0.69211
91.1165 0.69704
91.12269 0.70075
91.12881 0.70323
91.13501 0.70446
91.14146 0.70445
91.14831 0.70318
91.15572 0.70067
91.16384 0.69692
91.17283 0.69197
91.18282 0.68583
91.19396 0.67855
91.20638 0.67014
91.2202 0.66068
91.23555 0.65019
91.25254 0.63874
91.27126 0.62639
91.29182 0.6132
91.3143 0.59924
91.33876 0.58459
91.36527 0.56932
91.39389 0.55351
91.42465 0.53725
91.45759 0.52063
91.49272 0.50372
91.53005 0.48662
91.56958 0.46942
91.61128 0.45221
91.65513 0.43507
91.70109 0.41811
91.74911 0.40141
91.79913 0.38505
91.85107 0.36913
91.90486 0.35372
91.96039 0.33891
92.01758 0.32477
92.0763 0.31139
92.13645 0.29882
92.19789 0.28715
92.26049 0.27642
92.32412 0.2667
92.38863 0.25803
92.45387 0.25046
92.51969 0.24404
92.58592 0.2388
92.65243 0.23475
92.71904 0.23194
92.78559 0.23036
92.85193 0.23004
92.9179 0.23097
92.98334 0.23314
93.0481 0.23655
93.11202 0.24118
93.17496 0.24701
93.23679 0.254
93.29736 0.26212
93.35655 0.27133
93.41424 0.28158
93.47031 0.29281
93.52466 0.30497
93.5772 0.318
93.62784 0.33182
93.6765 0.34637
93.72312 0.36157
93.76765 0.37734
93.81003 0.3936
93.85025 0.41026
93.88828 0.42724
93.92411 0.44444
93.95775 0.46179
93.9892 0.47918
94.01849 0.49653
94.04567 0.51375
94.07078 0.53075
94.09388 0.54744
94.11504 0.56373
94.13433 0.57954
94.15186 0.59478
94.16772 0.60938
94.18202 0.62326
94.19487 0.63635
94.2064 0.64857
94.21674 0.65988
94.22603 0.6702
94.23441 0.67948
94.24203 0.68769
94.24905 0.69476
94.2556 0.70067
94.26187 0.70539
94.26799 0.70889
94.27414 0.71116
94.28047 0.71218
94.28715 0.71195
94.29432 0.71046
94.30214 0.70774
94.31077 0.70378
94.32035 0.69862
94.33102 0.69229
94.34292 0.6848
94.35618 0.67622
94.37091 0.66657
94.38724 0.65591
94.40527 0.6443
94.4251 0.6318
94.4468 0.61847
94.47048 0.60439
94.49617 0.58963
94.52396 0.57426
94.55387 0.55837
94.58595 0.54204
94.62022 0.52536
94.65668 0.50841
94.69535 0.49129
94.73619 0.47408
94.7792 0.45687
94.82434 0.43976
94.87155 0.42284
94.92079 0.40619
94.97199 0.3899
95.02506 0.37406
95.07991 0.35875
95.13646 0.34405
95.1946 0.33004
95.2542 0.31679
95.31514 0.30437
95.3773 0.29285
95.44055 0.28229
95.50472 0.27275
95.56969 0.26427
95.6353 0.2569
95.70139 0.25067
95.76781 0.24563
95.8344 0.2418
95.90099 0.2392
95.96744 0.23784
96.03357 0.23773
96.09924 0.23887
96.16428 0.24126
96.22855 0.24488
96.2919 0.24972
96.35418 0.25575
96.41526 0.26294
96.47501 0.27125
96.5333 0.28064
96.59002 0.29106
96.64506 0.30246
96.69832 0.31477
96.74972 0.32794
96.79917 0.34189
96.8466 0.35656
96.89196 0.37186
96.93519 0.38772
96.97627 0.40405
97.01516 0.42078
97.05186 0.4378
97.08636 0.45504
97.11866 0.4724
97.14881 0.48979
97.17681 0.50713
97.20273 0.52431
97.22661 0.54126
97.24852 0.55789
97.26854 0.5741
97.28676 0.58982
97.30326 0.60495
97.31816 0.61944
97.33156 0.63318
97.3436 0.64613
97.35439 0.6582
97.36408 0.66934
97.3728 0.67949
97.38071 0.68859
97.38794 0.6966
97.39466 0.70348
97.40102 0.70919
97.40718 0.7137
97.4133 0.71699
97.41954 0.71904
97.42606 0.71984
97.43302 0.71939
97.44057 0.71769
97.44886 0.71475
97.45805 0.71059
97.46827 0.70523
97.47967 0.69869
97.49238 0.69102
97.50652 0.68224
97.52221 0.67242
97.53955 0.66159
97.55866 0.64982
97.57962 0.63717
97.60251 0.62371
97.6274 0.60951
97.65436 0.59463
97.68343 0.57917
97.71465 0.5632
97.74806 0.5468
97.78365 0.53007
97.82145 0.51309
97.86144 0.49594
97.9036 0.47873
97.9479 0.46153
97.99431 0.44445
98.04276 0.42756
98.09319 0.41097
98.14553 0.39475
98.1997 0.37899
98.25559 0.36378
98.31311 0.34919
98.37215 0.33531
98.43258 0.3222
98.49428 0.30993
98.55711 0.29857
98.62094 0.28818
98.68562 0.27882
98.75099 0.27053
98.81691 0.26335
98.88322 0.25733
98.94976 0.25249
99.01637 0.24887
99.08289 0.24648
99.14917 0.24533
99.21504 0.24544
99.28034 0.2468
99.34493 0.2494
99.40866 0.25323
99.47138 0.25828
99.53295 0.26451
99.59324 0.27189
99.65212 0.28039
99.70947 0.28996
99.76519 0.30056
99.81916 0.31212
99.8713 0.32458
99.92152 0.33789
99.96976 0.35197
100.01594 0.36675
100.06001 0.38216
100.10195 0.3981
100.1417 0.41451
100.17926 0.43129
100.21463 0.44835
100.24779 0.46562
100.27879 0.48299
100.30763 0.50038
100.33436 0.5177
100.35904 0.53485
100.38172 0.55175
100.40247 0.56831
100.42139 0.58444
100.43855 0.60006
100.45407 0.61509
100.46805 0.62945
100.48061 0.64307
100.49188 0.65587
100.50198 0.66778
100.51107 0.67876
100.51927 0.68873
100.52675 0.69764
100.53366 0.70546
100.54014 0.71214
100.54636 0.71765
100.55248 0.72195
100.55865 0.72502
100.56504 0.72686
100.57181 0.72745
100.57911 0.72678
100.58709 0.72487
100.59591 0.72172
100.60571 0.71735
100.61663 0.71178
100.6288 0.70505
100.64236 0.69718
100.65743 0.68822
100.67411 0.67822
100.69251 0.66723
100.71273 0.6553
100.73485 0.64251
100.75895 0.62891
100.78509 0.61459
100.81332 0.59961
100.84369 0.58405
100.87623 0.568
100.91097 0.55154
100.9479 0.53476
100.98702 0.51774
101.02833 0.50057
101.0718 0.48336
101.11738 0.46617
101.16503 0.44912
101.21469 0.43228
101.26629 0.41574
101.31975 0.39959
101.37497 0.38393
101.43187 0.36882
101.49032 0.35434
101.55022 0.34059
101.61143 0.32762
101.67384 0.3155
101.73729 0.30431
101.80165 0.29409
101.86676 0.28491
101.93249 0.2768
101.99866 0.26982
102.06513 0.264
102.13173 0.25937
102.19831 0.25596
102.2647 0.25378
102.33075 0.25285
102.39629 0.25318
102.46119 0.25475
102.52527 0.25756
102.5884 0.2616
102.65044 0.26685
102.71125 0.27329
102.7707 0.28086
102.82867 0.28955
102.88504 0.2993
102.93971 0.31007
102.99258 0.32179
103.04357 0.3344
103.0926 0.34785
103.13959 0.36206
103.1845 0.37695
103.22728 0.39245
103.2679 0.40848
103.30633 0.42496
103.34255 0.44179
103.37659 0.4589
103.40843 0.47619
103.43812 0.49357
103.46568 0.51095
103.49115 0.52825
103.51461 0.54536
103.53612 0.56221
103.55574 0.5787
103.57359 0.59475
103.58974 0.61028
103.60431 0.6252
103.61742 0.63944
103.62918 0.65292
103.63972 0.66557
103.6492 0.67733
103.65773 0.68813
103.66548 0.69792
103.67259 0.70665
103.67922 0.71428
103.68552 0.72076
103.69166 0.72606
103.6978 0.73015
103.70408 0.73301
103.71068 0.73463
103.71775 0.73501
103.72545 0.73413
103.73392 0.732
103.74331 0.72864
103.75378 0.72406
103.76544 0.71829
103.77844 0.71135
103.7929 0.7033
103.80893 0.69415
103.82665 0.68398
103.84614 0.67282
103.8675 0.66074
103.89081 0.64781
103.91614 0.63408
103.94354 0.61964
103.97307 0.60455
104.00475 0.5889
104.03862 0.57277
104.07468 0.55625
104.11295 0.53942
104.1534 0.52237
104.19602 0.50519
104.24077 0.48797
104.28761 0.47081
104.33649 0.45378
104.38734 0.43698
104.44007 0.42051
104.49461 0.40444
104.55086 0.38886
104.60872 0.37386
104.66806 0.3595
104.72877 0.34587
104.79072 0.33305
104.85378 0.32109
104.9178 0.31005
104.98263 0.30001
105.04814 0.29101
105.11415 0.2831
105.18052 0.27631
105.24709 0.2707
105.3137 0.26628
105.38018 0.26307
105.44638 0.26111
105.51215 0.2604
105.57731 0.26093
105.64173 0.26272
105.70526 0.26574
105.76774 0.27
105.82905 0.27545
105.88905 0.28208
105.94762 0.28986
106.00463 0.29873
106.05998 0.30866
106.11358 0.31959
106.16532 0.33147
106.21512 0.34423
106.26293 0.35781
106.30866 0.37214
106.35229 0.38715
106.39376 0.40275
106.43305 0.41886
106.47014 0.4354
106.50504 0.45229
106.53774 0.46944
106.56828 0.48675
106.59667 0.50414
106.62296 0.52151
106.6472 0.53878
106.66947 0.55586
106.68983 0.57265
106.70836 0.58907
106.72517 0.60504
106.74035 0.62046
106.75402 0.63527
106.76629 0.64938
106.7773 0.66272
106.78718 0.67523
106.79606 0.68682
106.8041 0.69746
106.81145 0.70707
106.81825 0.71561
106.82466 0.72304
106.83085 0.72932
106.83696 0.73442
106.84317 0.7383
106.84963 0.74095
106.85649 0.74236
106.86392 0.74251
106.87207 0.74142
106.88109 0.73908
106.89111 0.7355
106.90229 0.73072
106.91475 0.72474
106.92862 0.71761
106.94402 0.70937
106.96106 0.70004
106.97984 0.68969
107.00045 0.67837
107.02299 0.66614
107.04751 0.65307
107.07409 0.63921
107.10278 0.62465
107.13361 0.60946
107.16661 0.59373
107.20181 0.57752
107.23921 0.56094
107.2788 0.54407
107.32057 0.52699
107.36449 0.5098
107.41051 0.49258
107.4586 0.47543
107.50868 0.45844
107.56068 0.44169
107.61452 0.42528
107.67011 0.40929
107.72734 0.3938
107.78611 0.3789
107.8463 0.36467
107.90778 0.35117
107.97042 0.33849
108.03407 0.32668
108.09861 0.31582
108.16386 0.30595
108.2297 0.29713
108.29595 0.28941
108.36246 0.28282
108.42907 0.27741
108.49562 0.2732
108.56195 0.27021
108.6279 0.26846
108.69332 0.26796
108.75806 0.26871
108.82195 0.27071
108.88486 0.27395
108.94665 0.27841
109.00718 0.28407
109.06633 0.2909
109.12396 0.29887
109.17998 0.30792
109.23428 0.31803
109.28676 0.32913
109.33734 0.34116
109.38594 0.35407
109.4325 0.36779
109.47696 0.38224
109.51928 0.39735
109.55943 0.41304
109.59739 0.42924
109.63315 0.44585
109.66672 0.46279
109.6981 0.47996
109.72733 0.49729
109.75444 0.51469
109.77949 0.53205
109.80253 0.54929
109.82362 0.56633
109.84287 0.58306
109.86034 0.59941
109.87615 0.61529
109.8904 0.63061
109.90321 0.64531
109.9147 0.65929
109.92501 0.67249
109.93427 0.68484
109.94262 0.69628
109.95022 0.70674
109.95722 0.71617
109.96376 0.72453
109.97002 0.73176
109.97615 0.73784
109.9823 0.74273
109.98864 0.7464
109.99532 0.74883
110.00251 0.75003
110.01036 0.74997
110.01902 0.74866
110.02863 0.7461
110.03933 0.74232
110.05127 0.73733
110.06457 0.73115
110.07936 0.72383
110.09574 0.71539
110.11382 0.70589
110.1337 0.69537
110.15547 0.68388
110.1792 0.6715
110.20497 0.65829
110.23282 0.6443
110.2628 0.62963
110.29495 0.61434
110.32928 0.59852
110.36581 0.58225
110.40454 0.56561
110.44546 0.54869
110.48853 0.53159
110.53373 0.51438
110.58101 0.49717
110.63031 0.48004
110.68157 0.46308
110.73469 0.44639
110.78961 0.43004
110.84621 0.41413
110.90439 0.39874
110.96403 0.38395
111.02502 0.36984
111.08721 0.35648
111.15049 0.34394
111.21469 0.33229
111.27968 0.3216
111.34531 0.31191
111.41141 0.30327
111.47784 0.29574
111.54443 0.28936
111.61102 0.28415
111.67746 0.28015
111.74358 0.27737
111.80923 0.27583
111.87425 0.27555
111.93849 0.27651
112.00181 0.27873
112.06405 0.28218
112.1251 0.28685
112.1848 0.29271
112.24305 0.29974
112.29972 0.30789
112.3547 0.31714
112.40791 0.32742
112.45925 0.33868
112.50863 0.35087
112.556 0.36392
112.60129 0.37777
112.64446 0.39234
112.68547 0.40756
112.7243 0.42334
112.76092 0.43961
112.79535 0.45629
112.82759 0.47327
112.85767 0.49048
112.88561 0.50783
112.91146 0.52522
112.93528 0.54257
112.95714 0.55978
112.9771 0.57677
112.99526 0.59345
113.01171 0.60972
113.02656 0.62551
113.03992 0.64073
113.05192 0.65531
113.06267 0.66916
113.07233 0.68222
113.08102 0.69442
113.0889 0.70569
113.09612 0.71598
113.10282 0.72523
113.10917 0.7334
113.11533 0.74043
113.12145 0.74631
113.1277 0.75099
113.13423 0.75445
113.14121 0.75667
113.14878 0.75765
113.1571 0.75737
113.16631 0.75585
113.17657 0.75308
113.18801 0.74909
113.20076 0.74389
113.21494 0.73751
113.23068 0.72999
113.24808 0.72137
113.26725 0.71169
113.28826 0.701
113.31121 0.68936
113.33617 0.67683
113.36319 0.66347
113.39233 0.64937
113.42362 0.63458
113.45709 0.61919
113.49276 0.60329
113.53062 0.58695
113.57068 0.57025
113.61291 0.5533
113.65728 0.53617
113.70374 0.51896
113.75226 0.50175
113.80275 0.48465
113.85515 0.46773
113.90937 0.45109
113.96532 0.43481
114.02289 0.41898
114.08197 0.40369
114.14244 0.38901
114.20418 0.37502
114.26704 0.3618
114.3309 0.34941
114.3956 0.33792
114.46099 0.32739
114.52692 0.31788
114.59324 0.30943
114.65979 0.3021
114.7264 0.29591
114.79292 0.29091
114.85918 0.28711
114.92503 0.28455
114.99032 0.28323
115.05489 0.28316
115.11859 0.28434
115.18127 0.28677
115.2428 0.29043
115.30305 0.2953
115.36188 0.30137
115.41919 0.3086
115.47485 0.31694
115.52877 0.32636
115.58085 0.33682
115.63101 0.34824
115.67918 0.36059
115.7253 0.37378
115.76931 0.38776
115.81117 0.40245
115.85086 0.41777
115.88836 0.43364
115.92365 0.44999
115.95675 0.46672
115.98768 0.48375
116.01645 0.50099
116.04312 0.51835
116.06773 0.53574
116.09035 0.55308
116.11105 0.57026
116.12991 0.5872
116.14702 0.60381
116.16249 0.62
116.17642 0.6357
116.18894 0.65082
116.20017 0.66528
116.21024 0.679
116.2193 0.69191
116.22748 0.70396
116.23494 0.71506
116.24183 0.72518
116.2483 0.73424
116.25451 0.74222
116.26063 0.74906
116.26681 0.75473
116.27321 0.7592
116.27999 0.76244
116.28731 0.76445
116.29531 0.76522
116.30416 0.76473
116.31399 0.76299
116.32495 0.76001
116.33717 0.7558
116.35077 0.7504
116.36588 0.74383
116.38262 0.73611
116.40108 0.7273
116.42135 0.71744
116.44353 0.70659
116.46769 0.69479
116.49389 0.68211
116.52219 0.66862
116.55263 0.65439
116.58524 0.6395
116.62004 0.62402
116.65704 0.60803
116.69624 0.59162
116.73761 0.57488
116.78114 0.55788
116.82679 0.54073
116.8745 0.52352
116.92423 0.50632
116.97588 0.48924
117.0294 0.47237
117.08468 0.45578
117.14162 0.43957
117.20012 0.42383
117.26006 0.40864
117.32132 0.39407
117.38375 0.38021
117.44724 0.36713
117.51162 0.35489
117.57676 0.34356
117.6425 0.3332
117.70868 0.32387
117.77516 0.31561
117.84176 0.30847
117.90834 0.30249
117.97472 0.29769
118.04075 0.29411
118.10628 0.29175
118.17115 0.29065
118.23521 0.29079
118.29831 0.29219
118.36031 0.29483
118.42108 0.2987
118.48048 0.30378
118.5384 0.31005
118.59472 0.31747
118.64934 0.32601
118.70216 0.33561
118.75309 0.34623
118.80205 0.35782
118.84898 0.37032
118.89383 0.38365
118.93654 0.39776
118.97709 0.41256
119.01545 0.42798
119.05161 0.44394
119.08557 0.46036
119.11735 0.47715
119.14697 0.49422
119.17446 0.51149
119.19988 0.52886
119.22327 0.54625
119.24472 0.56356
119.26429 0.58071
119.28208 0.5976
119.29818 0.61414
119.3127 0.63026
119.32576 0.64586
119.33749 0.66087
119.348 0.67521
119.35744 0.6888
119.36595 0.70157
119.37367 0.71345
119.38076 0.72439
119.38738 0.73433
119.39368 0.74321
119.39981 0.75099
119.40595 0.75763
119.41224 0.76309
119.41886 0.76736
119.42594 0.77039
119.43366 0.77219
119.44216 0.77273
119.45159 0.77203
119.46208 0.77007
119.47379 0.76688
119.48683 0.76247
119.50134 0.75687
119.51742 0.75009
119.53519 0.74219
119.55474 0.73319
119.57616 0.72316
119.59953 0.71213
119.62492 0.70018
119.65239 0.68736
119.68198 0.67374
119.71373 0.65939
119.74767 0.64439
119.7838 0.62881
119.82213 0.61274
119.86265 0.59627
119.90534 0.57948
119.95016 0.56245
119.99706 0.54528
120.046 0.52807
120.09691 0.51088
120.1497 0.49383
120.2043 0.477
120.2606 0.46047
120.3185 0.44434
120.37789 0.42869
120.43864 0.4136
120.50063 0.39915
120.56371 0.38541
120.62776 0.37247
120.69262 0.36038
120.75814 0.34922
120.82417 0.33903
120.89055 0.32988
120.95712 0.32181
121.02373 0.31487
121.0902 0.30908
121.15639 0.30449
121.22214 0.30112
121.28729 0.29898
121.35168 0.29809
121.41517 0.29845
121.47763 0.30006
121.5389 0.30292
121.59885 0.307
121.65737 0.31229
121.71434 0.31875
121.76964 0.32637
121.82317 0.33509
121.87485 0.34487
121.9246 0.35567
121.97234 0.36742
122.01801 0.38006
122.06157 0.39353
122.10297 0.40776
122.14219 0.42267
122.17922 0.43819
122.21405 0.45424
122.24669 0.47073
122.27715 0.48757
122.30548 0.50469
122.3317 0.52198
122.35589 0.53936
122.37809 0.55674
122.39839 0.57403
122.41687 0.59114
122.43362 0.60797
122.44876 0.62445
122.46238 0.64049
122.47461 0.65599
122.48559 0.67089
122.49543 0.6851
122.50429 0.69856
122.51231 0.71118
122.51963 0.7229
122.52642 0.73368
122.53282 0.74343
122.539 0.75213
122.54512 0.75972
122.55133 0.76616
122.5578 0.77142
122.56468 0.77547
122.57213 0.77829
122.5803 0.77987
122.58935 0.7802
122.5994 0.77928
122.61062 0.77711
122.62312 0.77371
122.63704 0.76909
122.65248 0.76328
122.66958 0.75631
122.68841 0.74821
122.70909 0.73904
122.73168 0.72883
122.75627 0.71764
122.78291 0.70553
122.81166 0.69257
122.84256 0.67882
122.87563 0.66435
122.9109 0.64924
122.94837 0.63358
122.98803 0.61743
123.02986 0.6009
123.07385 0.58406
123.11994 0.567
123.16808 0.54982
123.21822 0.5326
123.27028 0.51544
123.32418 0.49841
123.37982 0.48163
123.43711 0.46516
123.49592 0.44911
123.55615 0.43355
123.61767 0.41856
123.68034 0.40423
123.74403 0.39062
123.80858 0.37782
123.87386 0.36589
123.93971 0.35489
124.00597 0.34488
124.07248 0.33591
124.1391 0.32803
124.20564 0.32128
124.27196 0.3157
124.3379 0.31132
124.40331 0.30816
124.46801 0.30623
124.53188 0.30556
124.59476 0.30613
124.65651 0.30796
124.717 0.31103
124.7761 0.31532
124.83369 0.32081
124.88966 0.32748
124.9439 0.33528
124.99632 0.34419
125.04684 0.35415
125.09538 0.36512
125.14187 0.37702
125.18626 0.38981
125.22852 0.40342
125.2686 0.41777
125.3065 0.4328
125.34219 0.44841
125.37569 0.46454
125.407 0.48109
125.43617 0.49799
125.46322 0.51514
125.4882 0.53246
125.51117 0.54984
125.53221 0.56722
125.5514 0.58448
125.56882 0.60155
125.58458 0.61833
125.59878 0.63474
125.61155 0.65068
125.623 0.66609
125.63327 0.68088
125.6425 0.69496
125.65083 0.70828
125.65841 0.72075
125.66539 0.73232
125.67193 0.74292
125.67818 0.7525
125.6843 0.761
125.69045 0.7684
125.6968 0.77463
125.7035 0.77969
125.71071 0.78353
125.71858 0.78614
125.72726 0.78751
125.73691 0.78762
125.74765 0.78649
125.75963 0.7841
125.77297 0.78049
125.7878 0.77566
125.80424 0.76965
125.82237 0.76248
125.84231 0.7542
125.86414 0.74484
125.88794 0.73446
125.91376 0.72311
125.94168 0.71085
125.97173 0.69774
126.00394 0.68386
126.03834 0.66928
126.07494 0.65407
126.11374 0.63832
126.15472 0.6221
126.19787 0.60551
126.24313 0.58862
126.29048 0.57154
126.33984 0.55434
126.39115 0.53713
126.44433 0.51998
126.4993 0.50299
126.55595 0.48625
126.61418 0.46985
126.67386 0.45388
126.73489 0.43841
126.79712 0.42353
126.86043 0.40931
126.92466 0.39584
126.98967 0.38319
127.05531 0.37141
127.12143 0.36058
127.18786 0.35074
127.25446 0.34196
127.32105 0.33427
127.38748 0.32772
127.45359 0.32235
127.51922 0.31817
127.58422 0.31522
127.64843 0.31351
127.71172 0.31305
127.77393 0.31384
127.83493 0.31588
127.89459 0.31916
127.95279 0.32366
128.00941 0.32935
128.06434 0.33622
128.11749 0.34422
128.16877 0.35331
128.2181 0.36345
128.2654 0.37458
128.31063 0.38664
128.35373 0.39958
128.39467 0.41332
128.43343 0.42779
128.46999 0.44292
128.50435 0.45863
128.53652 0.47484
128.56653 0.49146
128.59441 0.50841
128.6202 0.52559
128.64395 0.54292
128.66575 0.56031
128.68565 0.57767
128.70376 0.59491
128.72016 0.61193
128.73496 0.62866
128.74828 0.64499
128.76023 0.66085
128.77095 0.67616
128.78058 0.69083
128.78924 0.70479
128.7971 0.71796
128.8043 0.73028
128.81099 0.74169
128.81733 0.75212
128.82348 0.76151
128.82961 0.76983
128.83586 0.77703
128.8424 0.78307
128.84939 0.78791
128.85698 0.79154
128.86533 0.79394
128.87458 0.79509
128.88487 0.79499
128.89635 0.79364
128.90914 0.79104
128.92337 0.78722
128.93916 0.78219
128.95661 0.77597
128.97583 0.76861
128.99691 0.76014
129.01992 0.7506
129.04494 0.74005
129.07203 0.72853
129.10123 0.71612
129.13259 0.70288
129.16613 0.68887
129.20186 0.67418
129.23979 0.65887
129.27992 0.64303
129.32221 0.62674
129.36665 0.61009
129.41318 0.59317
129.46176 0.57606
129.51231 0.55885
129.56477 0.54164
129.61904 0.52451
129.67504 0.50756
129.73266 0.49088
129.79179 0.47454
129.8523 0.45865
129.91407 0.44327
129.97697 0.4285
130.04086 0.41441
130.10558 0.40108
130.17099 0.38857
130.23694 0.37695
130.30327 0.36628
130.36982 0.35662
130.43643 0.34802
130.50294 0.34053
130.56919 0.33418
130.63503 0.32901
130.7003 0.32505
130.76484 0.32231
130.82851 0.32081
130.89116 0.32057
130.95265 0.32157
131.01286 0.32383
131.07165 0.32731
131.1289 0.33202
131.18451 0.33792
131.23837 0.34499
131.2904 0.35318
131.3405 0.36245
131.38861 0.37276
131.43466 0.38406
131.4786 0.39628
131.5204 0.40935
131.56002 0.42323
131.59745 0.43782
131.63267 0.45305
131.66571 0.46885
131.69656 0.48514
131.72527 0.50182
131.75188 0.51881
131.77643 0.53603
131.79899 0.55338
131.81962 0.57077
131.83843 0.58812
131.85549 0.60532
131.87091 0.6223
131.88479 0.63896
131.89727 0.65522
131.90846 0.67099
131.9185 0.6862
131.92753 0.70075
131.93568 0.71458
131.94312 0.72761
131.95 0.73978
131.95646 0.75102
131.96267 0.76127
131.96878 0.77049
131.97497 0.77862
131.98138 0.78561
131.98817 0.79145
131.99551 0.79609
132.00354 0.79951
132.01241 0.80169
132.02228 0.80263
132.03327 0.80231
132.04553 0.80074
132.05918 0.79794
132.07434 0.7939
132.09113 0.78866
132.10964 0.78225
132.12997 0.77469
132.15221 0.76603
132.17644 0.75632
132.2027 0.74559
132.23107 0.73392
132.26157 0.72136
132.29425 0.70798
132.32912 0.69385
132.36619 0.67905
132.40545 0.66364
132.44689 0.64772
132.49049 0.63136
132.5362 0.61466
132.58398 0.5977
132.63376 0.58056
132.68548 0.56335
132.73905 0.54614
132.79438 0.52904
132.85138 0.51213
132.90992 0.4955
132.9699 0.47923
133.0312 0.46342
133.09367 0.44815
133.15718 0.43349
133.22159 0.41952
133.28675 0.40632
133.35251 0.39396
133.4187 0.3825
133.48519 0.372
133.55179 0.36252
133.61836 0.35411
133.68474 0.34681
133.75076 0.34066
133.81627 0.3357
133.88111 0.33194
133.94514 0.32942
134.00821 0.32814
134.07018 0.32811
134.1309 0.32933
134.19027 0.33179
134.24814 0.33549
134.30441 0.34041
134.35897 0.34651
134.41173 0.35377
134.4626 0.36215
134.5115 0.37161
134.55837 0.38209
134.60315 0.39355
134.64579 0.40592
134.68627 0.41914
134.72456 0.43314
134.76066 0.44785
134.79455 0.46319
134.82626 0.47908
134.85581 0.49544
134.88324 0.51218
134.90859 0.52922
134.93193 0.54646
134.95331 0.56383
134.97283 0.58122
134.99056 0.59854
135.00662 0.61572
135.02109 0.63265
135.03411 0.64925
135.04579 0.66543
135.05627 0.68111
135.06568 0.6962
135.07416 0.71064
135.08186 0.72433
135.08894 0.73722
135.09554 0.74923
135.10183 0.76031
135.10797 0.77038
135.11411 0.77942
135.12041 0.78735
135.12703 0.79415
135.13414 0.79978
135.14187 0.80421
135.1504 0.80742
135.15986 0.80939
135.17039 0.81011
135.18214 0.80958
135.19522 0.8078
135.20978 0.80478
135.22591 0.80054
135.24373 0.79509
135.26334 0.78848
135.28482 0.78073
135.30825 0.77188
135.3337 0.76199
135.36124 0.7511
135.39089 0.73927
135.42271 0.72657
135.45672 0.71305
135.49292 0.6988
135.53132 0.68388
135.57191 0.66838
135.61466 0.65238
135.65954 0.63596
135.70651 0.6192
135.75551 0.6022
135.80648 0.58505
135.85933 0.56783
135.91398 0.55064
135.97033 0.53356
136.02828 0.51669
136.08771 0.50012
136.14851 0.48393
136.21053 0.4682
136.27365 0.45302
136.33772 0.43848
136.40261 0.42464
136.46814 0.41158
136.53419 0.39937
136.60057 0.38807
136.66715 0.37774
136.73375 0.36845
136.80022 0.36022
136.8664 0.35312
136.93213 0.34717
136.99726 0.34241
137.06163 0.33887
137.12509 0.33655
137.18751 0.33549
137.24874 0.33567
137.30865 0.33711
137.36713 0.33979
137.42404 0.3437
137.47929 0.34882
137.53277 0.35512
137.58439 0.36258
137.63407 0.37115
137.68175 0.38079
137.72736 0.39144
137.77085 0.40306
137.81218 0.41558
137.85134 0.42894
137.8883 0.44307
137.92306 0.45789
137.95563 0.47333
137.98602 0.4893
138.01428 0.50574
138.04045 0.52253
138.06457 0.53961
138.08671 0.55689
138.10695 0.57426
138.12538 0.59165
138.14208 0.60895
138.15716 0.62609
138.17074 0.64297
138.18294 0.6595
138.19387 0.6756
138.20368 0.69119
138.21251 0.70617
138.22051 0.72049
138.22781 0.73405
138.23458 0.74679
138.24098 0.75865
138.24715 0.76955
138.25327 0.77945
138.25949 0.7883
138.26597 0.79604
138.27286 0.80265
138.28033 0.80807
138.28853 0.81229
138.2976 0.81529
138.3077 0.81704
138.31895 0.81755
138.33149 0.8168
138.34546 0.81481
138.36095 0.81157
138.3781 0.80712
138.39699 0.80148
138.41772 0.79466
138.44038 0.78672
138.46503 0.77769
138.49173 0.76762
138.52055 0.75657
138.55152 0.74458
138.58466 0.73173
138.61999 0.71809
138.65753 0.70372
138.69726 0.68869
138.73916 0.6731
138.78321 0.65702
138.82936 0.64053
138.87757 0.62373
138.92777 0.6067
138.97989 0.58953
139.03384 0.57231
139.08954 0.55513
139.14687 0.53808
139.20573 0.52125
139.266 0.50474
139.32756 0.48862
139.39026 0.47298
139.45398 0.45791
139.51856 0.44348
139.58386 0.42977
139.64972 0.41685
139.71599 0.40479
139.78251 0.39366
139.84912 0.3835
139.91567 0.37439
139.98198 0.36635
140.0479 0.35944
140.11329 0.3537
140.17797 0.34915
140.24181 0.34581
140.30466 0.34371
140.36637 0.34286
140.42682 0.34326
140.48587 0.34491
140.54341 0.34781
140.59933 0.35193
140.65352 0.35725
140.70588 0.36376
140.75634 0.37141
140.80481 0.38016
140.85124 0.38998
140.89557 0.4008
140.93776 0.41258
140.97777 0.42525
141.0156 0.43875
141.05122 0.453
141.08465 0.46793
141.1159 0.48347
141.145 0.49953
141.17198 0.51603
141.1969 0.53289
141.21982 0.55001
141.2408 0.5673
141.25993 0.58468
141.2773 0.60206
141.293 0.61935
141.30716 0.63645
141.31988 0.65327
141.3313 0.66974
141.34154 0.68575
141.35074 0.70124
141.35904 0.71612
141.3666 0.7303
141.37356 0.74373
141.38009 0.75632
141.38633 0.76802
141.39245 0.77876
141.39861 0.78848
141.40497 0.79714
141.41168 0.80469
141.41891 0.81109
141.4268 0.81631
141.43551 0.82032
141.44519 0.82311
141.45596 0.82465
141.46798 0.82494
141.48137 0.82397
141.49625 0.82176
141.51273 0.81832
141.53093 0.81366
141.55092 0.80781
141.57281 0.8008
141.59667 0.79267
141.62256 0.78346
141.65054 0.77322
141.68066 0.762
141.71294 0.74986
141.74741 0.73687
141.78408 0.72309
141.82294 0.7086
141.86399 0.69347
141.9072 0.67779
141.95253 0.66163
141.99994 0.64509
142.04936 0.62824
142.10074 0.61117
142.15398 0.59399
142.209 0.57677
142.2657 0.55961
142.32397 0.54259
142.3837 0.52581
142.44477 0.50936
142.50703 0.49332
142.57037 0.47777
142.63463 0.4628
142.69966 0.44849
142.76532 0.43491
142.83145 0.42214
142.89789 0.41023
142.96449 0.39926
143.03107 0.38928
143.0975 0.38035
143.16359 0.3725
143.22921 0.36579
143.29418 0.36025
143.35837 0.35591
143.42163 0.35279
143.4838 0.3509
143.54476 0.35026
143.60438 0.35088
143.66253 0.35274
143.7191 0.35585
143.77398 0.36018
143.82708 0.36571
143.87829 0.37241
143.92756 0.38026
143.9748 0.3892
144.01996 0.39919
144.063 0.41018
144.10387 0.42212
144.14256 0.43494
144.17905 0.44857
144.21334 0.46294
144.24545 0.47799
144.27539 0.49362
144.3032 0.50976
144.32893 0.52633
144.35262 0.54323
144.37435 0.56039
144.3942 0.57771
144.41225 0.5951
144.4286 0.61246
144.44336 0.62972
144.45663 0.64678
144.46854 0.66355
144.47923 0.67994
144.48882 0.69588
144.49746 0.71126
144.50529 0.72603
144.51247 0.74009
144.51915 0.75337
144.52549 0.76582
144.53164 0.77735
144.53776 0.78792
144.54402 0.79746
144.55058 0.80594
144.55758 0.81329
144.56519 0.81949
144.57357 0.8245
144.58284 0.82831
144.59317 0.83088
144.60469 0.8322
144.61752 0.83227
144.6318 0.8311
144.64764 0.82867
144.66515 0.82502
144.68442 0.82015
144.70555 0.8141
144.72863 0.8069
144.75371 0.79858
144.78086 0.78918
144.81013 0.77877
144.84156 0.76739
144.87516 0.7551
144.91097 0.74196
144.94897 0.72806
144.98916 0.71345
145.03152 0.69823
145.07602 0.68246
145.12262 0.66622
145.17126 0.64962
145.22187 0.63273
145.27438 0.61564
145.32872 0.59844
145.38477 0.58122
145.44243 0.56408
145.50161 0.5471
145.56216 0.53037
145.62397 0.51398
145.6869 0.49801
145.75081 0.48256
145.81556 0.4677
145.88099 0.45351
145.94695 0.44007
146.01329 0.42744
146.07984 0.41569
146.14645 0.40488
146.21296 0.39508
146.2792 0.38633
146.34503 0.37868
146.41027 0.37217
146.47479 0.36683
146.53843 0.36269
146.60105 0.35978
146.6625 0.35811
146.72267 0.35769
146.78141 0.35852
146.83861 0.3606
146.89417 0.36392
146.94798 0.36845
146.99994 0.37419
147.04999 0.38109
147.09803 0.38913
147.14402 0.39825
147.1879 0.40842
147.22963 0.41958
147.26918 0.43167
147.30653 0.44463
147.34169 0.4584
147.37466 0.47289
147.40545 0.48804
147.43409 0.50377
147.46063 0.51999
147.48512 0.53662
147.50762 0.55358
147.5282 0.57077
147.54695 0.5881
147.56395 0.60549
147.57932 0.62285
147.59316 0.64008
147.6056 0.65709
147.61675 0.67381
147.62676 0.69013
147.63576 0.70597
147.64389 0.72126
147.65131 0.7359
147.65816 0.74984
147.66462 0.76298
147.67082 0.77527
147.67694 0.78665
147.68312 0.79704
147.68954 0.8064
147.69635 0.81469
147.70371 0.82185
147.71176 0.82784
147.72067 0.83265
147.73056 0.83624
147.74159 0.8386
147.75389 0.83971
147.76759 0.83956
147.7828 0.83817
147.79964 0.83554
147.81821 0.83167
147.8386 0.8266
147.8609 0.82035
147.88518 0.81295
147.91151 0.80444
147.93994 0.79486
147.97052 0.78428
148.00326 0.77274
148.0382 0.7603
148.07533 0.74703
148.11467 0.733
148.15618 0.71828
148.19984 0.70295
148.24562 0.68709
148.29346 0.67079
148.3433 0.65413
148.39508 0.6372
148.4487 0.62008
148.50409 0.60288
148.56113 0.58566
148.61972 0.56854
148.67975 0.5516
148.74108 0.53492
148.80359 0.5186
148.86713 0.50272
148.93157 0.48736
148.99675 0.47261
149.06252 0.45854
149.12873 0.44523
149.19521 0.43275
149.26182 0.42116
149.32839 0.41052
149.39475 0.4009
149.46076 0.39233
149.52625 0.38487
149.59107 0.37856
149.65508 0.37343
149.71811 0.3695
149.78004 0.3668
149.84073 0.36535
149.90005 0.36514
149.95787 0.36619
150.01409 0.36848
150.0686 0.37201
150.1213 0.37675
150.17211 0.38269
150.22095 0.38979
150.26775 0.39802
150.31246 0.40733
150.35504 0.41767
150.39546 0.42899
150.43368 0.44124
150.4697 0.45434
150.50353 0.46824
150.53517 0.48285
150.56466 0.49811
150.59202 0.51392
150.61731 0.53022
150.64058 0.54692
150.66191 0.56392
150.68137 0.58114
150.69905 0.59849
150.71505 0.61588
150.72948 0.63322
150.74245 0.65042
150.7541 0.66739
150.76454 0.68404
150.77392 0.70028
150.78237 0.71604
150.79005 0.73122
150.79711 0.74575
150.80371 0.75955
150.80999 0.77255
150.81612 0.78469
150.82226 0.7959
150.82857 0.80612
150.83521 0.8153
150.84233 0.82339
150.85009 0.83035
150.85864 0.83615
150.86813 0.84075
150.8787 0.84413
150.89048 0.84627
150.90362 0.84716
150.91822 0.84681
150.9344 0.8452
150.95227 0.84235
150.97194 0.83828
150.99348 0.833
151.01697 0.82655
151.04249 0.81895
151.07009 0.81026
151.09981 0.80051
151.1317 0.78975
151.16577 0.77805
151.20204 0.76546
151.24051 0.75206
151.28116 0.7379
151.32398 0.72307
151.36893 0.70765
151.41597 0.69171
151.46503 0.67534
151.51605 0.65863
151.56896 0.64166
151.62367 0.62452
151.68007 0.6073
151.73807 0.5901
151.79754 0.573
151.85837 0.5561
151.92043 0.53947
151.98359 0.52322
152.04769 0.50742
152.11259 0.49217
152.17815 0.47753
152.2442 0.46359
152.3106 0.45041
152.37718 0.43808
152.44378 0.42665
152.51024 0.41618
152.57641 0.40673
152.64213 0.39836
152.70723 0.39109
152.77157 0.38498
152.83501 0.38005
152.89739 0.37634
152.95858 0.37385
153.01845 0.37261
153.07688 0.37262
153.13374 0.37388
153.18894 0.37639
153.24236 0.38013
153.29392 0.38508
153.34355 0.39122
153.39116 0.39851
153.4367 0.40693
153.48013 0.41642
153.52139 0.42694
153.56048 0.43842
153.59737 0.45082
153.63206 0.46407
153.66456 0.47809
153.6949 0.49282
153.72309 0.50818
153.74919 0.52408
153.77325 0.54045
153.79533 0.55721
153.81552 0.57425
153.83389 0.5915
153.85054 0.60887
153.86557 0.62625
153.8791 0.64358
153.89126 0.66074
153.90215 0.67766
153.91193 0.69425
153.92074 0.71041
153.9287 0.72608
153.93599 0.74115
153.94275 0.75556
153.94913 0.76923
153.95531 0.78209
153.96142 0.79407
153.96765 0.80511
153.97414 0.81516
153.98105 0.82415
153.98854 0.83205
153.99676 0.83882
154.00586 0.84441
154.01599 0.8488
154.02728 0.85197
154.03987 0.85389
154.05388 0.85457
154.06942 0.854
154.08662 0.85218
154.10557 0.84912
154.12636 0.84483
154.14907 0.83935
154.17379 0.8327
154.20056 0.82491
154.22944 0.81603
154.26047 0.80611
154.29368 0.79518
154.32909 0.78332
154.36669 0.77059
154.40649 0.75705
154.44846 0.74278
154.49257 0.72784
154.53879 0.71232
154.58706 0.6963
154.63732 0.67987
154.6895 0.6631
154.74351 0.64609
154.79925 0.62894
154.85664 0.61172
154.91554 0.59453
154.97586 0.57745
155.03745 0.56059
155.10019 0.54403
155.16393 0.52785
155.22854 0.51214
155.29386 0.49698
155.35973 0.48245
155.42602 0.46864
155.49254 0.45561
155.55915 0.44342
155.62569 0.43215
155.69199 0.42186
155.7579 0.41259
155.82327 0.4044
155.88793 0.39734
155.95174 0.39143
156.01455 0.3867
156.07623 0.3832
156.13663 0.38093
156.19564 0.3799
156.25313 0.38012
156.309 0.3816
156.36313 0.38432
156.41544 0.38827
156.46583 0.39343
156.51425 0.39977
156.56061 0.40726
156.60487 0.41586
156.647 0.42553
156.68694 0.43622
156.7247 0.44787
156.76026 0.46042
156.79362 0.4738
156.8248 0.48795
156.85383 0.50279
156.88075 0.51825
156.90561 0.53424
156.92846 0.55069
156.94938 0.56749
156.96845 0.58458
156.98577 0.60186
157.00143 0.61923
157.01554 0.63662
157.02822 0.65392
157.0396 0.67105
157.0498 0.68792
157.05897 0.70444
157.06725 0.72052
157.07479 0.73609
157.08173 0.75105
157.08825 0.76534
157.09448 0.77887
157.1006 0.79159
157.10677 0.80341
157.11313 0.81429
157.11986 0.82415
157.1271 0.83296
157.13502 0.84067
157.14376 0.84724
157.15347 0.85262
157.16428 0.8568
157.17634 0.85976
157.18977 0.86147
157.2047 0.86193
157.22124 0.86115
157.23948 0.85911
157.25954 0.85584
157.28149 0.85135
157.3054 0.84566
157.33136 0.83881
157.35941 0.83083
157.38959 0.82177
157.42194 0.81166
157.45648 0.80058
157.49321 0.78856
157.53215 0.77569
157.57326 0.76201
157.61654 0.74762
157.66194 0.73258
157.70941 0.71697
157.75889 0.70087
157.81032 0.68437
157.86362 0.66756
157.91869 0.65052
157.97544 0.63334
158.03376 0.61612
158.09354 0.59894
158.15464 0.5819
158.21695 0.56508
158.28031 0.54858
158.3446 0.53247
158.40965 0.51685
158.47533 0.5018
158.54147 0.48739
158.60792 0.47371
158.67451 0.46081
158.7411 0.44878
158.80751 0.43768
158.8736 0.42756
158.93919 0.41847
159.00415 0.41047
159.06831 0.4036
159.13153 0.39789
159.19368 0.39338
159.2546 0.39008
159.31417 0.38803
159.37228 0.38721
159.42879 0.38765
159.48362 0.38934
159.53666 0.39228
159.58781 0.39643
159.63702 0.4018
159.68419 0.40834
159.72929 0.41603
159.77226 0.42482
159.81307 0.43466
159.85169 0.44552
159.88811 0.45733
159.92233 0.47003
159.95437 0.48355
159.98425 0.49782
160.01199 0.51277
160.03765 0.52833
160.06129 0.5444
160.08296 0.56092
160.10275 0.57778
160.12075 0.59491
160.13705 0.6122
160.15175 0.62959
160.16498 0.64696
160.17686 0.66424
160.18751 0.68133
160.19707 0.69815
160.20568 0.7146
160.21349 0.7306
160.22065 0.74607
160.22732 0.76092
160.23364 0.77508
160.23979 0.78848
160.24592 0.80105
160.25218 0.81271
160.25875 0.82342
160.26577 0.83311
160.27341 0.84173
160.2818 0.84924
160.29111 0.85561
160.30147 0.86079
160.31303 0.86476
160.32591 0.8675
160.34023 0.869
160.35612 0.86925
160.37368 0.86824
160.39301 0.86599
160.4142 0.86251
160.43734 0.85781
160.46248 0.85192
160.4897 0.84488
160.51904 0.83671
160.55053 0.82746
160.5842 0.81718
160.62008 0.80593
160.65815 0.79377
160.69841 0.78075
160.74083 0.76695
160.7854 0.75243
160.83206 0.73729
160.88076 0.72159
160.93143 0.70541
160.98401 0.68886
161.03839 0.672
161.09449 0.65493
161.15221 0.63774
161.21143 0.62052
161.27202 0.60336
161.33387 0.58635
161.39683 0.56958
161.46077 0.55313
161.52554 0.53711
161.59099 0.52158
161.65697 0.50663
161.72332 0.49234
161.78987 0.47879
161.85648 0.46604
161.92298 0.45416
161.98922 0.44322
162.05502 0.43327
162.12025 0.42437
162.18474 0.41656
162.24835 0.40989
162.31094 0.40439
162.37235 0.40008
162.43247 0.397
162.49117 0.39515
162.54833 0.39455
162.60383 0.39521
162.65758 0.39711
162.70949 0.40026
162.75947 0.40463
162.80745 0.41019
162.85337 0.41694
162.89719 0.42481
162.93885 0.43379
162.97833 0.44382
163.01562 0.45484
163.05071 0.4668
163.08361 0.47965
163.11433 0.4933
163.14291 0.5077
163.16939 0.52276
163.19381 0.53841
163.21625 0.55457
163.23677 0.57115
163.25546 0.58806
163.27242 0.60522
163.28774 0.62254
163.30153 0.63993
163.31393 0.6573
163.32504 0.67455
163.33502 0.6916
163.34398 0.70836
163.35209 0.72474
163.35949 0.74065
163.36633 0.75602
163.37277 0.77076
163.37897 0.7848
163.38509 0.79806
163.39128 0.81047
163.39771 0.82198
163.40453 0.83251
163.41191 0.84202
163.41999 0.85045
163.42892 0.85777
163.43885 0.86393
163.44992 0.86891
163.46226 0.87267
163.476 0.8752
163.49126 0.87648
163.50815 0.87651
163.52677 0.87529
163.54722 0.87283
163.56958 0.86914
163.59393 0.86423
163.62033 0.85814
163.64882 0.8509
163.67946 0.84254
163.71227 0.83311
163.74728 0.82266
163.78448 0.81125
163.82388 0.79893
163.86546 0.78577
163.90919 0.77184
163.95503 0.75722
164.00294 0.74197
164.05284 0.72618
164.10467 0.70994
164.15836 0.69332
164.2138 0.67642
164.27089 0.65932
164.32953 0.64212
164.3896 0.6249
164.45097 0.60776
164.51351 0.59079
164.57708 0.57407
164.64154 0.55769
164.70674 0.54174
164.77253 0.52631
164.83875 0.51147
164.90524 0.4973
164.97185 0.48388
165.03841 0.47127
165.10477 0.45955
165.17076 0.44878
165.23624 0.43901
165.30104 0.43029
165.36501 0.42268
165.42801 0.4162
165.48991 0.4109
165.55055 0.40681
165.60983 0.40394
165.6676 0.4023
165.72377 0.40192
165.77822 0.40279
165.83087 0.40491
165.88162 0.40827
165.93039 0.41284
165.97713 0.41862
166.02178 0.42555
166.06429 0.43363
166.10464 0.44278
166.14279 0.45299
166.17875 0.46418
166.21251 0.4763
166.24408 0.48928
166.2735 0.50307
166.3008 0.51759
166.32603 0.53276
166.34924 0.5485
166.3705 0.56474
166.38991 0.58138
166.40753 0.59834
166.42348 0.61554
166.43787 0.63287
166.4508 0.65027
166.4624 0.66762
166.47281 0.68484
166.48215 0.70185
166.49058 0.71855
166.49825 0.73485
166.50529 0.75068
166.51187 0.76594
166.51814 0.78057
166.52427 0.79448
166.53042 0.8076
166.53673 0.81986
166.54338 0.8312
166.55052 0.84156
166.55831 0.85089
166.56688 0.85913
166.5764 0.86625
166.58701 0.87221
166.59883 0.87698
166.61201 0.88053
166.62666 0.88285
166.64289 0.88391
166.66082 0.88373
166.68054 0.8823
166.70214 0.87962
166.72569 0.87572
166.75128 0.87061
166.77894 0.86431
166.80873 0.85688
166.84068 0.84833
166.87483 0.83872
166.91116 0.82811
166.9497 0.81653
166.99042 0.80406
167.03331 0.79077
167.07832 0.77671
167.12542 0.76197
167.17455 0.74663
167.22563 0.73075
167.27859 0.71444
167.33335 0.69777
167.38981 0.68083
167.44785 0.6637
167.50737 0.64649
167.56824 0.62928
167.63034 0.61216
167.69352 0.59523
167.75765 0.57856
167.82258 0.56225
167.88815 0.54638
167.95422 0.53104
168.02063 0.51631
168.08721 0.50227
168.15381 0.48898
168.22026 0.47653
168.28642 0.46497
168.35212 0.45436
168.4172 0.44477
168.48152 0.43624
168.54492 0.42882
168.60727 0.42254
168.66842 0.41745
168.72825 0.41356
168.78663 0.4109
168.84344 0.40948
168.89858 0.40932
168.95195 0.4104
169.00345 0.41273
169.05302 0.4163
169.10057 0.42108
169.14604 0.42706
169.1894 0.4342
169.2306 0.44246
169.26962 0.4518
169.30644 0.46217
169.34107 0.47353
169.3735 0.4858
169.40377 0.49893
169.43189 0.51285
169.45793 0.52749
169.48193 0.54276
169.50395 0.55859
169.52408 0.5749
169.54239 0.59161
169.55899 0.60862
169.57398 0.62584
169.58746 0.6432
169.59958 0.66059
169.61044 0.67792
169.62018 0.69512
169.62896 0.71208
169.6369 0.72871
169.64417 0.74494
169.65091 0.76068
169.65729 0.77584
169.66346 0.79034
169.66958 0.80412
169.67581 0.8171
169.68231 0.82921
169.68923 0.84038
169.69675 0.85057
169.70499 0.85971
169.71413 0.86777
169.72429 0.87469
169.73562 0.88045
169.74824 0.88501
169.7623 0.88835
169.77789 0.89045
169.79514 0.8913
169.81415 0.8909
169.835 0.88925
169.85777 0.88636
169.88255 0.88225
169.90939 0.87693
169.93834 0.87044
169.96943 0.86281
170.00271 0.85408
170.03818 0.84429
170.07585 0.83351
170.11572 0.82178
170.15776 0.80916
170.20194 0.79573
170.24822 0.78155
170.29656 0.7667
170.34688 0.75126
170.39911 0.7353
170.45317 0.71892
170.50897 0.70219
170.5664 0.68522
170.62536 0.66807
170.68571 0.65086
170.74734 0.63365
170.81011 0.61656
170.87389 0.59966
170.93852 0.58305
171.00386 0.56681
171.06975 0.55103
171.13604 0.53579
171.20257 0.52117
171.26918 0.50725
171.33571 0.4941
171.40201 0.4818
171.4679 0.4704
171.53325 0.45996
171.59788 0.45055
171.66166 0.44221
171.72444 0.43498
171.78608 0.4289
171.84645 0.42401
171.90541 0.42034
171.96286 0.41789
172.01867 0.41669
172.07274 0.41674
172.12499 0.41804
172.17533 0.42058
172.22368 0.42436
172.26998 0.42935
172.31418 0.43553
172.35623 0.44286
172.39611 0.45131
172.4338 0.46084
172.46929 0.47138
172.50258 0.4829
172.5337 0.49533
172.56266 0.5086
172.58952 0.52264
172.61431 0.53739
172.6371 0.55277
172.65796 0.56869
172.67698 0.58507
172.69424 0.60184
172.70985 0.61889
172.72392 0.63614
172.73656 0.65351
172.74789 0.6709
172.75806 0.68822
172.7672 0.70537
172.77546 0.72228
172.78297 0.73886
172.7899 0.75501
172.79641 0.77065
172.80264 0.7857
172.80876 0.80009
172.81492 0.81373
172.8213 0.82656
172.82804 0.83852
172.8353 0.84953
172.84324 0.85954
172.85201 0.8685
172.86175 0.87636
172.8726 0.88309
172.8847 0.88864
172.89818 0.89299
172.91315 0.89611
172.92974 0.898
172.94804 0.89864
172.96815 0.89802
172.99016 0.89616
173.01414 0.89306
173.04016 0.88874
173.06827 0.88322
173.09852 0.87653
173.13094 0.8687
173.16554 0.85979
173.20235 0.84983
173.24135 0.83887
173.28254 0.82698
173.32588 0.81422
173.37134 0.80066
173.41887 0.78636
173.46842 0.7714
173.51991 0.75586
173.57326 0.73983
173.62839 0.72338
173.68519 0.70661
173.74356 0.68959
173.80338 0.67243
173.86452 0.65521
173.92686 0.63802
173.99026 0.62095
174.05457 0.6041
174.11964 0.58754
174.18534 0.57138
174.25149 0.55568
174.31794 0.54054
174.38454 0.52604
174.45113 0.51225
174.51753 0.49924
174.5836 0.48708
174.64918 0.47585
174.71412 0.46558
174.77825 0.45635
174.84144 0.4482
174.90355 0.44116
174.96443 0.43529
175.02396 0.43061
175.08202 0.42714
175.13848 0.42491
175.19325 0.42392
175.24623 0.42419
175.29733 0.4257
175.34647 0.42846
175.39359 0.43245
175.43862 0.43764
175.48152 0.44402
175.52226 0.45155
175.56081 0.46019
175.59717 0.46989
175.63132 0.48061
175.6633 0.49229
175.6931 0.50486
175.72078 0.51827
175.74638 0.53244
175.76995 0.54731
175.79157 0.56278
175.8113 0.57879
175.82924 0.59525
175.84549 0.61206
175.86015 0.62916
175.87333 0.64644
175.88517 0.66381
175.89578 0.6812
175.90531 0.69849
175.91389 0.71561
175.92168 0.73247
175.92883 0.74898
175.93548 0.76505
175.9418 0.78059
175.94794 0.79554
175.95407 0.8098
175.96035 0.82331
175.96692 0.836
175.97396 0.84779
175.98162 0.85863
175.99004 0.86847
175.99938 0.87724
176.00978 0.88491
176.02137 0.89143
176.03429 0.89678
176.04866 0.90092
176.0646 0.90384
176.08221 0.90551
176.1016 0.90593
176.12285 0.9051
176.14605 0.90302
176.17126 0.89971
176.19854 0.89518
176.22794 0.88946
176.2595 0.88257
176.29325 0.87455
176.32919 0.86545
176.36732 0.85532
176.40765 0.8442
176.45015 0.83215
176.49478 0.81925
176.5415 0.80555
176.59027 0.79113
176.641 0.77607
176.69363 0.76044
176.74807 0.74433
176.80422 0.72782
176.86199 0.711
176.92125 0.69395
176.98189 0.67677
177.04377 0.65955
177.10677 0.64238
177.17073 0.62534
177.23553 0.60853
177.301 0.59204
177.36699 0.57594
177.43334 0.56034
177.4999 0.54531
177.56651 0.53092
177.63301 0.51726
177.69923 0.50439
177.76502 0.49239
177.83022 0.48131
177.89469 0.47122
177.95827 0.46217
178.02082 0.45421
178.0822 0.44737
178.14228 0.4417
178.20093 0.43723
178.25804 0.43397
178.31349 0.43195
178.36718 0.43118
178.41903 0.43166
178.46895 0.43339
178.51687 0.43636
178.56273 0.44056
178.60647 0.44596
178.64807 0.45254
178.68748 0.46026
178.72471 0.46908
178.75973 0.47897
178.79256 0.48985
178.82321 0.50169
178.85173 0.51441
178.87814 0.52796
178.9025 0.54226
178.92488 0.55723
178.94534 0.5728
178.96398 0.58889
178.98088 0.60542
178.99615 0.62229
179.0099 0.63942
179.02225 0.65672
179.03333 0.67411
179.04327 0.69148
179.05221 0.70875
179.06029 0.72584
179.06767 0.74264
179.0745 0.75908
179.08093 0.77506
179.08713 0.79051
179.09324 0.80534
179.09944 0.81948
179.10588 0.83285
179.11272 0.84539
179.12011 0.85702
179.12821 0.8677
179.13718 0.87735
179.14714 0.88594
179.15825 0.89341
179.17063 0.89974
179.18441 0.90488
179.19972 0.90881
179.21666 0.91151
179.23534 0.91297
179.25585 0.91318
179.27827 0.91213
179.30268 0.90984
179.32914 0.90632
179.3577 0.90158
179.38841 0.89565
179.42129 0.88857
179.45636 0.88036
179.49364 0.87108
179.5331 0.86077
179.57475 0.84949
179.61854 0.83729
179.66445 0.82424
179.71242 0.81042
179.76238 0.79588
179.81428 0.78072
179.86801 0.765
179.9235 0.74881
179.98065 0.73224
180.03933 0.71538
180.09944 0.6983
180.16085 0.68111
180.22343 0.66389
180.28703 0.64673
180.35151 0.62972
180.41674 0.61296
180.48254 0.59653
180.54877 0.58052
180.61527 0.56501
180.68188 0.55008
180.74844 0.53581
180.81478 0.52228
180.88076 0.50956
180.94622 0.49771
181.011 0.4868
181.07494 0.47689
181.13791 0.46802
181.19977 0.46025
181.26038 0.45361
181.3196 0.44814
181.37733 0.44387
181.43345 0.44083
181.48785 0.43902
181.54043 0.43847
181.59112 0.43916
181.63984 0.44111
181.68651 0.44429
181.73109 0.4487
181.77354 0.4543
181.81382 0.46108
181.8519 0.46899
181.88779 0.478
181.92148 0.48806
181.95299 0.49912
181.98234 0.51111
182.00958 0.52398
182.03474 0.53766
182.05789 0.55208
182.0791 0.56716
182.09844 0.58283
182.11602 0.599
182.13192 0.61559
182.14625 0.63251
182.15914 0.64968
182.17071 0.667
182.18108 0.68439
182.19039 0.70175
182.1988 0.719
182.20644 0.73604
182.21346 0.75279
182.22003 0.76915
182.2263 0.78505
182.23243 0.8004
182.23857 0.81512
182.2449 0.82913
182.25156 0.84236
182.25872 0.85475
182.26652 0.86622
182.27513 0.87672
182.28468 0.8862
182.29532 0.89459
182.30718 0.90187
182.3204 0.908
182.3351 0.91293
182.35138 0.91665
182.36937 0.91914
182.38914 0.92038
182.4108 0.92037
182.43442 0.91911
182.46007 0.91661
182.48779 0.91288
182.51765 0.90793
182.54967 0.9018
182.58388 0.89452
182.62029 0.88613
182.65889 0.87666
182.69968 0.86618
182.74264 0.85474
182.78772 0.84239
182.83488 0.82921
182.88406 0.81525
182.93521 0.8006
182.98823 0.78534
183.04304 0.76953
183.09955 0.75327
183.15764 0.73665
183.2172 0.71974
183.27812 0.70263
183.34025 0.68543
183.40346 0.66821
183.46762 0.65108
183.53257 0.63411
183.59816 0.6174
183.66424 0.60103
183.73065 0.5851
183.79724 0.56968
183.86383 0.55486
183.93028 0.54071
183.99643 0.52732
184.06211 0.51474
184.12717 0.50305
184.19146 0.49231
184.25483 0.48257
184.31715 0.47389
184.37826 0.46631
184.43805 0.45987
184.49638 0.45461
184.55314 0.45055
184.60823 0.44771
184.66154 0.44612
184.71298 0.44578
184.76248 0.44669
184.80997 0.44885
184.85538 0.45225
184.89868 0.45686
184.93981 0.46267
184.97876 0.46965
185.01551 0.47775
185.05007 0.48694
185.08244 0.49718
185.11263 0.5084
185.1407 0.52055
185.16667 0.53356
185.1906 0.54737
185.21256 0.56191
185.23263 0.5771
185.25089 0.59286
185.26744 0.60911
185.28238 0.62576
185.29582 0.64273
185.30789 0.65993
185.31872 0.67727
185.32843 0.69466
185.33718 0.71201
185.3451 0.72923
185.35235 0.74623
185.35908 0.76291
185.36545 0.7792
185.37161 0.79501
185.37773 0.81026
185.38397 0.82486
185.39048 0.83874
185.39742 0.85184
185.40495 0.86407
185.41323 0.87538
185.42239 0.88571
185.43258 0.895
185.44395 0.90321
185.45662 0.91029
185.47072 0.91621
185.48637 0.92094
185.50367 0.92445
185.52273 0.92672
185.54364 0.92775
185.56647 0.92752
185.59131 0.92605
185.61822 0.92333
185.64723 0.91939
185.6784 0.91424
185.71174 0.90791
185.74728 0.90043
185.78502 0.89185
185.82495 0.88221
185.86706 0.87156
185.9113 0.85996
185.95765 0.84746
186.00605 0.83414
186.05643 0.82006
186.10872 0.8053
186.16284 0.78993
186.21869 0.77404
186.27617 0.75771
186.33517 0.74103
186.39557 0.72408
186.45724 0.70696
186.52004 0.68974
186.58384 0.67253
186.6485 0.65542
186.71385 0.63849
186.77976 0.62183
186.84606 0.60553
186.9126 0.58968
186.97921 0.57436
187.04574 0.55965
187.11202 0.54563
187.1779 0.53237
187.24323 0.51994
187.30784 0.50841
187.37159 0.49783
187.43434 0.48827
187.49594 0.47978
187.55626 0.47239
187.61518 0.46615
187.67257 0.4611
187.72833 0.45725
187.78236 0.45463
187.83455 0.45325
187.88482 0.45312
187.93311 0.45425
187.97934 0.45662
188.02348 0.46023
188.06546 0.46505
188.10528 0.47106
188.1429 0.47823
188.17832 0.48653
188.21154 0.49591
188.24259 0.50631
188.27149 0.5177
188.29828 0.53
188.32301 0.54316
188.34574 0.5571
188.36654 0.57175
188.38551 0.58705
188.40271 0.6029
188.41827 0.61922
188.43229 0.63593
188.44489 0.65295
188.45619 0.67018
188.46632 0.68754
188.47543 0.70493
188.48366 0.72226
188.49116 0.73944
188.49807 0.75639
188.50457 0.77302
188.51079 0.78923
188.51691 0.80495
188.52308 0.82009
188.52946 0.83457
188.53622 0.84833
188.5435 0.86127
188.55146 0.87335
188.56026 0.8845
188.57003 0.89465
188.58092 0.90376
188.59306 0.91178
188.60658 0.91866
188.62161 0.92438
188.63824 0.9289
188.6566 0.9322
188.67677 0.93426
188.69884 0.93507
188.72288 0.93463
188.74896 0.93294
188.77714 0.93001
188.80746 0.92586
188.83994 0.9205
188.87462 0.91397
188.91149 0.9063
188.95056 0.89754
188.99181 0.88772
189.03522 0.8769
189.08075 0.86514
189.12834 0.85249
189.17795 0.83903
189.2295 0.82483
189.28291 0.80996
189.33809 0.7945
189.39494 0.77853
189.45336 0.76213
189.51322 0.7454
189.5744 0.72841
189.63677 0.71126
189.7002 0.69405
189.76454 0.67685
189.82964 0.65976
189.89534 0.64287
189.96151 0.62626
190.02797 0.61004
190.09457 0.59427
190.16115 0.57905
190.22755 0.56445
190.29361 0.55056
190.35917 0.53743
190.42408 0.52515
190.48819 0.51378
190.55135 0.50338
190.61342 0.494
190.67426 0.48569
190.73375 0.4785
190.79175 0.47246
190.84817 0.46761
190.90289 0.46397
190.95581 0.46157
191.00685 0.4604
191.05593 0.46049
191.10298 0.46183
191.14794 0.46442
191.19078 0.46823
191.23145 0.47326
191.26994 0.47948
191.30622 0.48685
191.34031 0.49533
191.37222 0.50489
191.40196 0.51547
191.42957 0.52701
191.4551 0.53947
191.47861 0.55276
191.50017 0.56683
191.51985 0.5816
191.53773 0.597
191.55393 0.61294
191.56854 0.62933
191.58168 0.64611
191.59348 0.66317
191.60406 0.68042
191.61355 0.69779
191.62211 0.71518
191.62988 0.73249
191.637 0.74964
191.64364 0.76654
191.64995 0.7831
191.6561 0.79924
191.66223 0.81486
191.66851 0.82989
191.6751 0.84426
191.68215 0.85787
191.68983 0.87068
191.69828 0.8826
191.70765 0.89358
191.71808 0.90355
191.72971 0.91248
191.74268 0.9203
191.7571 0.92699
191.77308 0.9325
191.79075 0.93681
191.8102 0.9399
191.83151 0.94175
191.85477 0.94234
191.88004 0.94169
191.90739 0.93978
191.93685 0.93664
191.96848 0.93228
192.00229 0.92672
192.0383 0.91999
192.07651 0.91213
192.1169 0.90318
192.15946 0.89318
192.20416 0.8822
192.25095 0.87028
192.29977 0.85749
192.35057 0.8439
192.40325 0.82958
192.45775 0.8146
192.51395 0.79904
192.57177 0.78299
192.63107 0.76653
192.69175 0.74975
192.75367 0.73273
192.8167 0.71556
192.88069 0.69834
192.94551 0.68115
193.011 0.66409
193.077 0.64724
193.14337 0.6307
193.20993 0.61455
193.27654 0.59887
193.34303 0.58375
193.40924 0.56927
193.47501 0.5555
193.5402 0.54252
193.60464 0.53039
193.66819 0.51918
193.73071 0.50895
193.79205 0.49975
193.85208 0.49163
193.91069 0.48463
193.96774 0.4788
194.02314 0.47415
194.07678 0.47073
194.12857 0.46853
194.17843 0.46759
194.22629 0.46789
194.27208 0.46944
194.31576 0.47224
194.35729 0.47627
194.39664 0.4815
194.43379 0.48792
194.46874 0.49548
194.5015 0.50416
194.53209 0.51389
194.56054 0.52464
194.58689 0.53635
194.61119 0.54895
194.6335 0.56239
194.65391 0.57658
194.67249 0.59146
194.68934 0.60696
194.70456 0.62298
194.71827 0.63945
194.73058 0.65628
194.74162 0.67338
194.75153 0.69066
194.76044 0.70804
194.7685 0.72542
194.77586 0.74271
194.78267 0.75982
194.78909 0.77667
194.79528 0.79316
194.8014 0.80922
194.8076 0.82474
194.81405 0.83967
194.8209 0.85391
194.82831 0.86739
194.83644 0.88005
194.84543 0.89181
194.85543 0.90262
194.86657 0.91242
194.879 0.92116
194.89283 0.92879
194.90819 0.93528
194.92518 0.94058
194.94391 0.94468
194.96448 0.94756
194.98696 0.94919
195.01143 0.94957
195.03796 0.9487
195.06659 0.94658
195.09736 0.94323
195.13031 0.93866
195.16545 0.93289
195.20279 0.92597
195.24233 0.91792
195.28404 0.90878
195.3279 0.89861
195.37387 0.88746
195.4219 0.87539
195.47193 0.86246
195.52388 0.84873
195.57767 0.83429
195.63322 0.81921
195.69041 0.80356
195.74914 0.78744
195.80929 0.77092
195.87074 0.75408
195.93335 0.73703
195.99698 0.71985
196.06149 0.70263
196.12673 0.68545
196.19255 0.66842
196.25879 0.65162
196.3253 0.63514
196.39191 0.61906
196.45846 0.60347
196.5248 0.58846
196.59077 0.57409
196.6562 0.56045
196.72095 0.54761
196.78487 0.53564
196.84781 0.52459
196.90963 0.51454
196.9702 0.50552
197.02938 0.49759
197.08706 0.49079
197.14312 0.48516
197.19747 0.48072
197.25 0.47751
197.30063 0.47553
197.34928 0.47479
197.39589 0.47531
197.44041 0.47708
197.48279 0.48009
197.52299 0.48433
197.56101 0.48977
197.59683 0.49639
197.63046 0.50414
197.6619 0.513
197.69118 0.52292
197.71835 0.53383
197.74345 0.5457
197.76654 0.55845
197.78769 0.57202
197.80698 0.58634
197.8245 0.60133
197.84035 0.61692
197.85464 0.63303
197.86748 0.64956
197.87901 0.66645
197.88934 0.68358
197.89863 0.70089
197.90701 0.71827
197.91462 0.73565
197.92163 0.75291
197.92819 0.76999
197.93445 0.78678
197.94058 0.8032
197.94673 0.81917
197.95306 0.8346
197.95974 0.84941
197.96691 0.86352
197.97474 0.87687
197.98337 0.88938
197.99296 0.90098
198.00363 0.91162
198.01554 0.92124
198.0288 0.92979
198.04354 0.93723
198.05988 0.94352
198.07792 0.94862
198.09775 0.95251
198.11947 0.95517
198.14315 0.95659
198.16886 0.95675
198.19665 0.95566
198.22658 0.95333
198.25867 0.94977
198.29294 0.94499
198.32942 0.93903
198.36809 0.9319
198.40895 0.92366
198.45196 0.91435
198.49711 0.904
198.54434 0.89269
198.59358 0.88046
198.64479 0.86739
198.69787 0.85354
198.75273 0.83898
198.80929 0.8238
198.86743 0.80806
198.92704 0.79186
198.98799 0.77528
199.05015 0.7584
199.1134 0.74132
199.17758 0.72413
199.24256 0.70691
199.30817 0.68975
199.37426 0.67275
199.44068 0.656
199.50727 0.63958
199.57386 0.62358
199.6403 0.60808
199.70644 0.59317
199.7721 0.57893
199.83714 0.56542
199.9014 0.55273
199.96475 0.54091
200.02702 0.53003
200.0881 0.52015
200.14784 0.51132
200.20613 0.50358
200.26284 0.49698
200.31787 0.49155
200.37113 0.48732
200.42251 0.48432
200.47195 0.48255
200.51937 0.48203
200.56472 0.48277
200.60795 0.48475
200.64901 0.48797
200.6879 0.49242
200.72458 0.49806
200.75907 0.50488
200.79137 0.51283
200.8215 0.52187
200.8495 0.53196
200.8754 0.54305
200.89927 0.55507
200.92118 0.56797
200.94119 0.58167
200.95939 0.59611
200.97589 0.61121
200.99078 0.6269
201.00418 0.64308
201.01621 0.65968
201.027 0.67661
201.03668 0.69379
201.0454 0.71111
201.0533 0.7285
201.06053 0.74586
201.06725 0.7631
201.0736 0.78013
201.07976 0.79687
201.08589 0.81322
201.09213 0.8291
201.09865 0.84443
201.10561 0.85912
201.11316 0.87311
201.12146 0.88632
201.13065 0.89867
201.14088 0.91012
201.15229 0.92058
201.165 0.93002
201.17914 0.93839
201.19484 0.94563
201.2122 0.95171
201.23131 0.95661
201.25228 0.96029
201.27518 0.96273
201.30008 0.96394
201.32705 0.96389
201.35613 0.96258
201.38736 0.96004
201.42077 0.95627
201.45638 0.95128
201.49419 0.94511
201.53419 0.9378
201.57636 0.92937
201.62067 0.91987
201.66709 0.90936
201.71555 0.89788
201.76599 0.8855
201.81834 0.87229
201.87251 0.85831
201.92841 0.84364
201.98594 0.82836
202.04499 0.81254
202.10542 0.79626
202.16713 0.77962
202.22997 0.76271
202.2938 0.7456
202.35848 0.72839
202.42385 0.71118
202.48978 0.69404
202.55609 0.67708
202.62263 0.66038
202.68924 0.64402
202.75576 0.62811
202.82203 0.6127
202.8879 0.5979
202.9532 0.58378
203.01779 0.57041
203.08151 0.55786
203.14423 0.5462
203.20579 0.53549
203.26607 0.52578
203.32495 0.51713
203.38229 0.50959
203.438 0.50319
203.49197 0.49796
203.5441 0.49394
203.59431 0.49115
203.64254 0.4896
203.68871 0.4893
203.73277 0.49025
203.77469 0.49245
203.81444 0.49588
203.85199 0.50053
203.88734 0.50638
203.9205 0.51339
203.95148 0.52153
203.98032 0.53076
204.00704 0.54103
204.03171 0.55228
204.05438 0.56445
204.07512 0.57749
204.09403 0.59133
204.11118 0.60589
204.12669 0.6211
204.14067 0.63687
204.15322 0.65314
204.16448 0.6698
204.17458 0.68678
204.18367 0.70399
204.19187 0.72133
204.19934 0.73872
204.20624 0.75606
204.21273 0.77328
204.21895 0.79026
204.22506 0.80694
204.23124 0.82321
204.23763 0.839
204.2444 0.85423
204.2517 0.86881
204.25969 0.88267
204.26851 0.89573
204.27831 0.90793
204.28924 0.91921
204.30142 0.92951
204.31499 0.93876
204.33006 0.94694
204.34675 0.95398
204.36516 0.95986
204.38539 0.96455
204.40752 0.96802
204.43162 0.97025
204.45777 0.97124
204.48601 0.97097
204.5164 0.96946
204.54895 0.9667
204.58369 0.96272
204.62063 0.95753
204.65977 0.95116
204.70109 0.94365
204.74456 0.93503
204.79015 0.92535
204.83782 0.91467
204.88748 0.90304
204.93909 0.89051
204.99256 0.87716
205.04779 0.86306
205.10469 0.84828
205.16316 0.83289
205.22306 0.81699
205.28428 0.80065
205.34669 0.78395
205.41015 0.767
205.47451 0.74986
205.53963 0.73265
205.60535 0.71544
205.67153 0.69833
205.738 0.68141
205.8046 0.66476
205.87118 0.64847
205.93757 0.63264
206.00361 0.61733
206.06916 0.60264
206.13404 0.58864
206.19813 0.57541
206.26125 0.56301
206.32329 0.55151
206.38409 0.54096
206.44353 0.53144
206.50149 0.52298
206.55786 0.51563
206.61252 0.50942
206.66538 0.50441
206.71636 0.5006
206.76538 0.49802
206.81237 0.49668
206.85727 0.49659
206.90004 0.49776
206.94064 0.50017
206.97906 0.50381
207.01528 0.50867
207.0493 0.51472
207.08113 0.52193
207.11081 0.53026
207.13836 0.53967
207.16383 0.55011
207.18727 0.56153
207.20877 0.57386
207.22839 0.58704
207.24622 0.601
207.26237 0.61568
207.27693 0.63099
207.29003 0.64686
207.30179 0.6632
207.31233 0.67992
207.32179 0.69694
207.33033 0.71418
207.33807 0.73154
207.34518 0.74893
207.35181 0.76626
207.35811 0.78343
207.36425 0.80037
207.37038 0.81699
207.37667 0.83318
207.38327 0.84888
207.39034 0.864
207.39804 0.87846
207.40652 0.89219
207.41592 0.90511
207.42639 0.91716
207.43806 0.92827
207.45107 0.93839
207.46553 0.94747
207.48157 0.95545
207.49929 0.96229
207.51879 0.96797
207.54016 0.97245
207.56348 0.97571
207.58882 0.97773
207.61623 0.9785
207.64577 0.97802
207.67746 0.97629
207.71134 0.97332
207.74741 0.96912
207.78569 0.96373
207.82615 0.95716
207.86878 0.94946
207.91354 0.94065
207.9604 0.9308
208.00928 0.91995
208.06014 0.90816
208.11288 0.89549
208.16743 0.882
208.22369 0.86778
208.28155 0.85288
208.3409 0.8374
208.40161 0.82142
208.46357 0.80501
208.52663 0.78826
208.59066 0.77127
208.6555 0.75412
208.721 0.7369
208.78702 0.7197
208.85339 0.70261
208.91996 0.68573
208.98657 0.66914
209.05305 0.65293
209.11925 0.63718
209.18501 0.62197
209.25017 0.6074
209.31459 0.59352
209.37811 0.58043
209.44059 0.56818
209.50189 0.55683
209.56189 0.54646
209.62044 0.53712
209.67745 0.52884
209.7328 0.52169
209.78638 0.51569
209.83811 0.51087
209.88791 0.50727
209.9357 0.50491
209.98143 0.50378
210.02504 0.50391
210.0665 0.50529
210.10578 0.50792
210.14287 0.51177
210.17775 0.51684
210.21045 0.52309
210.24097 0.5305
210.26935 0.53902
210.29563 0.54861
210.31987 0.55922
210.34213 0.57079
210.36247 0.58328
210.381 0.5966
210.3978 0.61069
210.41297 0.62548
210.42663 0.64089
210.4389 0.65685
210.44991 0.67326
210.45978 0.69004
210.46866 0.70711
210.4767 0.72437
210.48404 0.74174
210.49084 0.75912
210.49725 0.77643
210.50343 0.79358
210.50955 0.81047
210.51576 0.82701
210.52222 0.84313
210.52908 0.85874
210.53652 0.87375
210.54467 0.88809
210.55369 0.90168
210.56372 0.91445
210.5749 0.92635
210.58737 0.93729
210.60125 0.94724
210.61665 0.95612
210.6337 0.96391
210.65249 0.97056
210.67311 0.97604
210.69565 0.98031
210.72019 0.98335
210.74678 0.98516
210.77547 0.98571
210.80631 0.98501
210.83933 0.98307
210.87454 0.97989
210.91195 0.97549
210.95155 0.96989
210.99333 0.96312
211.03726 0.95522
211.08329 0.94624
211.13138 0.93621
211.18147 0.92519
211.23348 0.91324
211.28733 0.90043
211.34293 0.88681
211.40017 0.87246
211.45895 0.85747
211.51914 0.84189
211.58063 0.82583
211.64327 0.80935
211.70693 0.79256
211.77147 0.77553
211.83673 0.75836
211.90256 0.74114
211.96881 0.72395
212.03533 0.7069
212.10194 0.69006
212.16849 0.67352
212.23482 0.65738
212.30077 0.64172
212.36618 0.62662
212.43091 0.61216
212.4948 0.59842
212.55771 0.58546
212.61949 0.57336
212.68002 0.56218
212.73916 0.55198
212.79679 0.54282
212.8528 0.53473
212.90709 0.52777
212.95956 0.52198
213.01013 0.51737
213.05872 0.51398
213.10527 0.51183
213.14972 0.51092
213.19203 0.51126
213.23217 0.51286
213.27012 0.5157
213.30587 0.51976
213.33943 0.52503
213.3708 0.53149
213.40002 0.53909
213.42712 0.54779
213.45216 0.55756
213.47519 0.56834
213.49628 0.58008
213.51551 0.59271
213.53298 0.60617
213.54878 0.62039
213.56302 0.63529
213.57582 0.6508
213.58731 0.66684
213.59761 0.68332
213.60687 0.70016
213.61522 0.71727
213.62281 0.73455
213.62981 0.75193
213.63635 0.76931
213.64261 0.7866
213.64873 0.8037
213.65488 0.82054
213.66123 0.83702
213.66791 0.85305
213.67511 0.86856
213.68296 0.88346
213.69162 0.89768
213.70123 0.91114
213.71195 0.92376
213.72389 0.9355
213.7372 0.94627
213.75199 0.95604
213.76838 0.96474
213.78647 0.97234
213.80636 0.97879
213.82814 0.98405
213.85188 0.98812
213.87765 0.99095
213.90551 0.99254
213.9355 0.99288
213.96766 0.99197
214.002 0.98981
214.03855 0.98641
214.07729 0.9818
214.11821 0.976
214.1613 0.96904
214.20651 0.96095
214.2538 0.95178
214.30311 0.94158
214.35437 0.9304
214.4075 0.91829
214.46242 0.90534
214.51903 0.89159
214.57722 0.87712
214.63687 0.86202
214.69786 0.84636
214.76006 0.83022
214.82334 0.81368
214.88755 0.79684
214.95254 0.77978
215.01817 0.7626
215.08428 0.74537
215.15071 0.7282
215.2173 0.71118
215.28389 0.69438
215.35032 0.67791
215.41644 0.66185
215.48209 0.64628
215.54711 0.63128
215.61135 0.61694
215.67466 0.60332
215.7369 0.59051
215.79793 0.57856
215.85763 0.56755
215.91587 0.55752
215.97253 0.54854
216.02751 0.54065
216.08071 0.53389
216.13204 0.52829
216.18142 0.52389
216.22877 0.52072
216.27406 0.51878
216.31722 0.51808
216.35821 0.51864
216.39703 0.52045
216.43365 0.5235
216.46807 0.52778
216.5003 0.53325
216.53036 0.53991
216.55829 0.5477
216.58414 0.55659
216.60795 0.56654
216.62979 0.57749
216.64974 0.58938
216.66789 0.60216
216.68434 0.61576
216.69918 0.6301
216.71254 0.64511
216.72453 0.66072
216.73528 0.67684
216.74493 0.69339
216.75362 0.71028
216.7615 0.72742
216.76871 0.74473
216.77541 0.76212
216.78176 0.77948
216.78792 0.79675
216.79404 0.81381
216.80029 0.83059
216.80682 0.847
216.8138 0.86295
216.82137 0.87836
216.82969 0.89315
216.83892 0.90724
216.84918 0.92056
216.86062 0.93304
216.87338 0.94461
216.88757 0.95522
216.90332 0.9648
216.92073 0.97332
216.9399 0.98072
216.96092 0.98697
216.98388 0.99203
217.00885 0.99588
217.03588 0.9985
217.06503 0.99988
217.09633 1
